SET
I  first /1*66/
K(I)  depot1 /1*6/
O(I)  node1 /7*66/
alias(I,J);
alias(K,L);
alias(O,P);
TABLE C(I,J)  node to node
                          1                         2                         3                         4                         5                         6                         7                         8                         9                         10                        11                        12                        13                        14                        15                        16                        17                        18                        19                        20                        21                        22                        23                        24                        25                        26                        27                        28                        29                        30                        31                        32                        33                        34                        35                        36                        37                        38                        39                        40                        41                        42                        43                        44                        45                        46                        47                        48                        49                        50                        51                        52                        53                        54                        55                        56                        57                        58                        59                        60                        61                        62                        63                        64                        65                        66                        
1                         99999.0                   99999.0                   99999.0                   99999.0                   99999.0                   99999.0                   157.7149                  150.6154                  144.2221                  163.3677                  103.1601                  204.5018                  158.1518                  124.1451                  32.9848                   33.0606                   158.619                   163.2176                  135.4474                  146.7685                  12.0416                   19.8494                   156.9235                  21.4709                   43.0116                   128.0625                  11.4018                   171.19                    181.1574                  156.3202                  201.6358                  42.2966                   217.7935                  11.0                      140.4315                  35.3553                   150.1466                  144.4991                  26.2488                   197.4968                  154.0552                  89.1964                   208.9426                  100.6231                  70.8378                   160.0312                  153.0751                  144.4195                  181.1077                  86.8159                   203.3839                  154.7805                  209.38                    140.289                   198.3129                  88.2326                   156.0128                  128.39                    202.0891                  161.929                   75.5381                   145.6194                  151.7959                  197.717                   36.1248                   105.3613                  
2                         99999.0                   99999.0                   99999.0                   99999.0                   99999.0                   99999.0                   169.9235                  82.7345                   120.0                     86.539                    116.9701                  155.631                   82.2922                   144.4022                  78.7909                   84.6936                   79.2465                   89.8888                   151.6113                  159.8155                  68.0074                   66.2873                   135.0                     61.8142                   89.9444                   148.8624                  77.7817                   111.8302                  153.9415                  76.6551                   147.0272                  85.9593                   171.3301                  69.0                      156.0801                  82.7647                   113.7717                  159.2482                  76.2168                   148.4756                  165.0848                  30.2655                   158.4203                  96.566                    54.2033                   83.006                    80.4487                   159.6778                  134.4619                  36.0139                   152.5942                  78.721                    160.9969                  156.9745                  148.4857                  27.2947                   76.0263                   145.8904                  148.1891                  119.9208                  10.2956                   86.2844                   74.8465                   144.4022                  85.0                      112.6987                  
3                         99999.0                   99999.0                   99999.0                   99999.0                   99999.0                   99999.0                   213.7148                  61.6847                   144.2221                  33.0                      171.8197                  139.3592                  36.4966                   197.717                   155.3319                  161.4094                  14.1421                   48.1664                   201.0622                  205.7693                  148.0034                  145.5816                  156.9235                  141.3542                  164.7119                  201.792                   157.3849                  92.228                    165.463                   10.7703                   124.004                   160.5895                  155.158                   149.0                     204.4529                  158.9025                  127.059                   206.4946                  154.0422                  133.7348                  208.7415                  81.7068                   139.0575                  146.0308                  116.8674                  31.1448                   48.0833                   207.2125                  127.122                   88.6397                   134.1827                  35.171                    144.2221                  205.915                   132.5443                  80.6536                   4.4721                    197.1903                  126.0159                  123.8588                  85.4751                   80.5295                   31.0161                   124.1451                  161.0745                  164.6238                  
4                         99999.0                   99999.0                   99999.0                   99999.0                   99999.0                   99999.0                   15.2971                   172.4094                  89.4427                   204.2768                  62.6259                   151.4629                  197.717                   36.4966                   128.2498                  127.0157                  215.1279                  192.0417                  27.313                    20.5183                   159.4522                  147.7633                  83.8153                   151.1985                  117.0043                  32.249                    149.0302                  160.5802                  97.2522                   216.4163                  163.0245                  118.1059                  153.0817                  160.3777                  22.8254                   125.1                     110.9234                  20.0                      135.2368                  148.4756                  19.3132                   154.7773                  157.4071                  83.2166                   124.8119                  203.1994                  185.235                   19.4165                   136.8211                  147.0272                  155.1934                  196.6647                  152.8398                  21.9317                   150.6254                  157.3054                  222.036                   33.5261                   161.6168                  122.5602                  168.6001                  153.1176                  198.3986                  158.1518                  124.0363                  66.1891                   
5                         99999.0                   99999.0                   99999.0                   99999.0                   99999.0                   99999.0                   65.0692                   117.8346                  40.0                      150.0966                  83.4386                   73.0821                   144.4022                  82.2922                   146.8605                  149.0403                  165.5295                  135.3514                  73.3894                   66.4906                   172.9306                  160.7296                  25.0                      161.929                   141.1737                  82.4621                   167.72                    94.7945                   18.3848                   168.1547                  86.8159                   139.8177                  73.171                    174.2441                  71.8401                   145.7738                  52.0                      69.857                    153.0                     71.3092                   62.3939                   130.0615                  78.848                    78.2624                   116.1809                  150.2332                  131.727                   70.8308                   63.2456                   124.004                   77.4919                   144.6271                  73.7564                   73.7631                   73.5391                   133.0601                  175.3283                  76.9675                   85.0882                   56.4004                   151.0828                  98.4124                   148.0608                  82.2922                   145.9623                  77.3369                   
6                         99999.0                   99999.0                   99999.0                   99999.0                   99999.0                   99999.0                   145.031                   104.1393                  89.4427                   127.0                     151.0033                  23.2594                   124.1451                  158.1518                  198.7159                  202.7141                  146.0137                  112.0714                  151.0828                  145.6743                  217.2211                  206.48                    83.8153                   205.8665                  197.4082                  159.2482                  216.4486                  70.6116                   63.3877                   150.0533                  36.0139                   194.805                   8.6023                    218.6344                  150.3363                  199.1231                  76.8375                   148.8624                  203.2954                  30.4138                   142.1724                  150.5855                  21.3776                   134.6291                  155.6213                  129.0349                  114.8564                  149.8566                  45.607                    148.1114                  26.9258                   126.321                   17.8885                   152.3187                  30.4631                   153.1829                  158.0506                  153.3754                  34.0588                   64.3506                   173.2801                  93.4077                   131.461                   36.4966                   200.0625                  142.762                   
7                         157.7149                  169.9235                  213.7148                  15.2971                   65.0692                   145.031                   99999.0                   158.6726                  74.793                    190.7905                  56.3205                   136.1947                  184.2878                  34.2053                   125.1958                  124.6796                  202.2325                  178.219                   22.3607                   11.0                      156.0288                  144.0                     68.6222                   147.0544                  114.8564                  31.0161                   146.4923                  145.7944                  82.0975                   203.6909                  147.7329                  115.434                   138.0145                  157.0509                  17.4642                   122.4091                  96.1769                   13.3417                   132.1855                  133.1803                  5.0                       144.5337                  142.1443                  73.4098                   116.3787                  189.842                   171.7032                  13.6015                   121.5648                  136.8832                  139.9035                  183.3712                  137.6154                  18.0278                   135.3292                  147.1768                  209.5376                  29.4279                   146.3216                  107.5407                  159.6997                  139.2013                  185.3106                  142.8636                  121.5936                  57.9741                   
8                         150.6154                  82.7345                   61.6847                   172.4094                  117.8346                  104.1393                  158.6726                  99999.0                   85.5862                   32.6497                   125.5906                  81.7435                   26.6271                   148.4756                  133.5552                  139.2623                  47.927                    19.7231                   149.3754                  152.0526                  139.2049                  131.9129                  97.0052                   129.244                   138.8128                  152.0691                  143.8923                  33.541                    103.8701                  50.9215                   68.9638                   134.9518                  98.0051                   140.5276                  152.0132                  135.9596                  66.6108                   153.3786                  135.0926                  75.326                    153.8376                  61.7171                   82.7647                   99.2975                   86.7006                   32.45                     13.8924                   154.2077                  66.3702                   63.9062                   77.2787                   26.8328                   86.977                    153.701                   74.5453                   63.1348                   58.5235                   146.7685                  70.6045                   62.2415                   80.604                    19.8494                   30.6757                   67.6831                   137.7679                  117.1751                  
9                         144.2221                  120.0                     144.2221                  89.4427                   40.0                      89.4427                   74.793                    85.5862                   99999.0                   118.1905                  61.9839                   72.5328                   111.9464                  74.108                    113.7014                  116.8461                  131.6055                  104.69                    70.6116                   70.0071                   137.0584                  125.1958                  15.0                      125.7816                  110.3177                  76.4199                   133.4541                  71.1758                   37.1214                   133.7012                  79.1012                   108.2081                  80.9568                   138.4233                  71.8401                   113.3578                  21.5407                   72.111                    119.2015                  67.2681                   70.2353                   90.0888                   78.339                    46.0977                   77.8332                   117.686                   99.1564                   73.0548                   52.1536                   84.006                    74.3303                   111.5213                  75.8947                   73.7631                   69.0507                   93.086                    140.3567                  70.4557                   78.2304                   34.3657                   111.1126                  65.7647                   114.2016                  74.108                    113.9517                  53.4883                   
10                        163.3677                  86.539                    33.0                      204.2768                  150.0966                  127.0                     190.7905                  32.6497                   118.1905                  99999.0                   154.7417                  106.4707                  6.7082                    178.8771                  152.0033                  158.0                     19.105                    15.5242                   180.5685                  183.8314                  151.4199                  146.3728                  129.6302                  142.8636                  159.3142                  182.6499                  158.5339                  59.9083                   135.5323                  23.3452                   91.0055                   155.2611                  122.2007                  152.6106                  183.4394                  155.0129                  99.2018                   185.0                     152.2104                  100.9752                  185.914                   76.0592                   106.0754                  128.3511                  107.912                   3.6056                    19.105                    185.801                   95.2103                   81.0555                   101.2423                  9.0554                    111.2879                  185.0676                  99.7246                   76.2365                   31.257                    177.5528                  93.0215                   94.0213                   88.3233                   52.4976                   11.7047                   91.1976                   157.0287                  146.7106                  
