SET
I  first /1*46/
K(I)  depot1 /1*6/
O(I)  node1 /7*46/
alias(I,J);
alias(K,L);
alias(O,P);
TABLE C(I,J)  node to node
                          1                         2                         3                         4                         5                         6                         7                         8                         9                         10                        11                        12                        13                        14                        15                        16                        17                        18                        19                        20                        21                        22                        23                        24                        25                        26                        27                        28                        29                        30                        31                        32                        33                        34                        35                        36                        37                        38                        39                        40                        41                        42                        43                        44                        45                        46                        
1                         99999.0                   99999.0                   99999.0                   99999.0                   99999.0                   99999.0                   122.1024                  81.5843                   85.9593                   98.3717                   69.857                    81.4923                   97.5141                   63.561                    108.4666                  124.4709                  96.6023                   87.6641                   28.0                      20.0                      13.0                      91.586                    138.7984                  78.5493                   52.4976                   55.1543                   66.2193                   13.0                      130.5105                  99.0202                   32.5269                   8.0623                    95.268                    148.1891                  85.1469                   95.5667                   73.0068                   72.3671                   114.057                   57.2451                   132.0984                  72.9932                   94.4299                   89.7385                   124.4227                  67.6018                   
2                         99999.0                   99999.0                   99999.0                   99999.0                   99999.0                   99999.0                   58.8558                   80.8022                   63.9062                   122.0246                  4.1231                    77.666                    110.4536                  2.2361                    58.8218                   71.1196                   73.7631                   22.0907                   39.0                      55.0727                   74.0945                   65.0                      106.0754                  67.7422                   14.0357                   56.0803                   2.0                       78.5875                   70.7672                   106.827                   41.7732                   67.0671                   59.1354                   111.8794                  32.7567                   29.8329                   7.2801                    7.0711                    55.8032                   10.7703                   71.4213                   8.544                     107.5639                  24.0416                   63.6396                   6.7082                    
3                         99999.0                   99999.0                   99999.0                   99999.0                   99999.0                   99999.0                   31.7648                   98.4073                   75.6902                   143.5444                  26.3059                   94.6414                   129.4025                  32.5576                   52.3927                   58.0775                   82.801                    8.544                     68.9638                   84.309                    104.0433                  74.027                    104.2929                  83.8689                   44.1814                   79.3095                   30.1496                   108.9082                  50.3289                   124.3262                  71.0634                   97.1236                   63.8122                   107.2007                  35.4683                   2.2361                    23.1948                   23.7697                   40.1123                   40.0125                   49.6588                   23.4094                   126.8267                  7.2801                    42.72                     29.1548                   
4                         99999.0                   99999.0                   99999.0                   99999.0                   99999.0                   99999.0                   151.4893                  23.3238                   45.4863                   33.541                    105.603                   26.4008                   14.3178                   103.7304                  83.2166                   95.5667                   42.3792                   116.6748                  102.8397                  112.641                   112.361                   49.1935                   67.3573                   36.7967                   95.7706                   51.8652                   102.4158                  106.2121                  112.9292                  6.0828                    79.3095                   108.0417                  61.7414                   78.4347                   85.4283                   118.3427                  106.6677                  109.0183                  101.2373                  95.1893                   116.3873                  111.2115                  14.3178                   113.8991                  112.361                   110.6797                  
5                         99999.0                   99999.0                   99999.0                   99999.0                   99999.0                   99999.0                   115.6244                  18.0                      9.434                     64.5368                   72.4707                   14.0357                   47.1699                   71.6938                   48.8365                   63.0317                   11.6619                   81.6884                   80.2247                   93.7443                   99.925                    14.1421                   53.2635                   8.6023                    65.9697                   31.7805                   69.7782                   96.6488                   79.0759                   40.7063                   58.0517                   93.984                    26.6833                   63.6553                   49.5782                   82.7345                   73.0616                   75.6637                   66.0984                   64.195                    82.3772                   77.8974                   45.2217                   78.5684                   77.6209                   78.2943                   
6                         99999.0                   99999.0                   99999.0                   99999.0                   99999.0                   99999.0                   68.9493                   83.6002                   57.2189                   130.2306                  62.2656                   79.511                    112.2943                  67.1193                   17.0294                   8.2462                    57.28                     54.5711                   99.7046                   116.6748                  132.4387                  51.6236                   59.6825                   70.0643                   72.9178                   80.2808                   63.5138                   133.9627                  13.3417                   105.0809                  89.3588                   125.2517                  39.2046                   59.808                    36.2353                   48.3735                   59.9416                   62.6099                   10.198                    68.0147                   16.7631                   63.9766                   110.6345                  49.4773                   14.1421                   68.884                    
7                         122.1024                  58.8558                   31.7648                   151.4893                  115.6244                  68.9493                   99999.0                   129.8499                  106.3015                  175.2769                  55.109                    126.0159                  160.8975                  60.6712                   77.1751                   77.1622                   112.45                    37.9473                   94.1329                   107.3546                  128.1327                  103.9471                  127.9531                  115.2085                  72.8354                   110.982                   59.2284                   134.3726                  62.8013                   155.6021                  100.6231                  121.6963                  92.7631                   128.7517                  66.0681                   33.6155                   52.3927                   51.788                    60.4152                   69.4262                   60.407                    50.4876                   158.373                   38.9102                   56.5155                   55.1453                   
8                         81.5843                   80.8022                   98.4073                   23.3238                   18.0                      83.6002                   129.8499                  99999.0                   26.4764                   47.1275                   82.4621                   4.1231                    31.0644                   80.4487                   66.6108                   81.0247                   28.6356                   94.1754                   80.895                    92.0                      94.3663                   32.0624                   66.2193                   14.7648                   72.4707                   29.4279                   79.2023                   89.493                    96.8762                   26.1725                   57.4282                   89.2693                   44.4072                   77.201                    64.1405                   96.4002                   83.6301                   85.9127                   83.4326                   71.8679                   100.1299                  88.0909                   28.6531                   91.6788                   95.1262                   87.4185                   
9                         85.9593                   63.9062                   75.6902                   45.4863                   9.434                     57.2189                   106.3015                  26.4764                   99999.0                   73.4983                   64.4748                   22.3607                   56.4624                   64.195                    40.1995                   55.0818                   11.1803                   72.8011                   76.2955                   90.802                    98.8838                   6.7082                    52.8394                   13.1529                   59.5399                   31.8904                   62.0322                   96.5194                   70.4557                   50.1199                   55.3624                   92.5743                   18.0278                   62.426                    40.3113                   73.5527                   64.846                    67.5426                   57.0088                   57.2713                   73.6817                   69.7782                   54.4243                   69.527                    68.6586                   70.5762                   
10                        98.3717                   122.0246                  143.5444                  33.541                    64.5368                   130.2306                  175.2769                  47.1275                   73.4983                   99999.0                   124.4709                  51.2445                   19.2354                   121.1652                  113.3578                  127.0118                  73.437                    138.398                   109.9318                  115.1564                  108.683                   78.6448                   100.6876                  61.6847                   111.018                   65.9469                   120.7394                  100.449                   143.5618                  27.4591                   88.0057                   106.3203                  91.2195                   111.6826                  110.4943                  141.6616                  126.2101                  128.0625                  130.5067                  111.866                   146.8911                  130.0961                  20.0                      136.5284                  142.1267                  128.2225                  
11                        69.857                    4.1231                    26.3059                   105.603                   72.4707                   62.2656                   55.109                    82.4621                   64.4748                   124.4709                  99999.0                   79.2023                   112.45                    6.3246                    56.7539                   68.4471                   74.0                      18.0278                   43.0813                   59.0593                   78.1857                   65.146                    105.0                     69.0652                   18.0                      58.6003                   4.1231                    82.7103                   67.3573                   108.5772                  45.5412                   71.1688                   58.5491                   110.4536                  31.1448                   25.7099                   3.1623                    3.6056                    52.6972                   14.3178                   67.897                    5.6569                    109.6038                  19.9249                   60.1415                   7.0711                    
12                        81.4923                   77.666                    94.6414                   26.4008                   14.0357                   79.511                    126.0159                  4.1231                    22.3607                   51.2445                   79.2023                   99999.0                   34.9857                   77.3886                   62.514                    77.0065                   25.0                      90.5539                   79.404                    91.0879                   94.3716                   28.0179                   63.7809                   10.8167                   69.7782                   28.0179                   76.0263                   89.8888                   92.7793                   29.7321                   56.0803                   89.0505                   40.3113                   74.6525                   60.208                    92.6175                   80.2808                   82.6196                   79.3095                   68.9638                   96.026                    84.8116                   32.6497                   87.9659                   91.0055                   84.3149                   
13                        97.5141                   110.4536                  129.4025                  14.3178                   47.1699                   112.2943                  160.8975                  31.0644                   56.4624                   19.2354                   112.45                    34.9857                   99999.0                   109.8772                  95.6033                   108.6738                  55.109                    124.964                   104.1777                  112.058                   109.1146                  61.0328                   81.6088                   45.793                    100.8018                  55.4707                   108.9771                  102.0196                  125.6344                  8.2462                    81.0247                   105.5746                  73.6817                   92.6553                   95.1893                   127.4127                  113.8464                  115.9741                  113.2166                  100.896                   129.031                   118.1059                  3.1623                    122.6132                  124.6194                  116.9316                  
14                        63.561                    2.2361                    32.5576                   103.7304                  71.6938                   67.1193                   60.6712                   80.4487                   64.195                    121.1652                  6.3246                    77.3886                   109.8772                  99999.0                   60.407                    72.9452                   74.2159                   24.1868                   36.7696                   52.8394                   71.8679                   65.5134                   107.1681                  67.6018                   12.1655                   55.2268                   3.6056                    76.4003                   72.8629                   106.4002                  40.025                    64.846                    60.0333                   113.1371                  34.2053                   32.0156                   9.4868                    9.0                       57.8014                   9.434                     73.5527                   10.198                    106.9626                  26.2488                   65.7647                   7.0711                    
15                        108.4666                  58.8218                   52.3927                   83.2166                   48.8365                   17.0294                   77.1751                   66.6108                   40.1995                   113.3578                  56.7539                   62.514                    95.6033                   60.407                    99999.0                   16.5529                   40.8534                   54.1479                   89.202                    106.0424                  120.2414                  34.7131                   51.923                    53.0377                   63.6318                   64.195                    56.921                    120.8801                  30.2655                   88.5438                   76.0592                   113.1459                  22.2036                   55.1453                   26.4008                   50.2195                   55.109                    58.0517                   18.6011                   59.0593                   33.541                    59.8415                   93.8616                   49.2544                   29.1548                   63.7887                   
