SET
I  first /1*56/
K(I)  depot1 /1*6/
O(I)  node1 /7*56/
alias(I,J);
alias(K,L);
alias(O,P);
TABLE C(I,J)  node to node
                          1                         2                         3                         4                         5                         6                         7                         8                         9                         10                        11                        12                        13                        14                        15                        16                        17                        18                        19                        20                        21                        22                        23                        24                        25                        26                        27                        28                        29                        30                        31                        32                        33                        34                        35                        36                        37                        38                        39                        40                        41                        42                        43                        44                        45                        46                        47                        48                        49                        50                        51                        52                        53                        54                        55                        56                        
1                         99999.0                   99999.0                   99999.0                   99999.0                   99999.0                   99999.0                   80.05                     82.4621                   90.2441                   95.7549                   75.1332                   120.6151                  12.8062                   117.6435                  130.7823                  90.4434                   95.7183                   67.082                    85.7263                   99.1817                   52.4976                   77.3692                   103.7738                  5.0                       64.56                     62.6099                   66.7608                   105.2616                  17.0294                   98.9545                   103.2473                  107.5639                  78.5875                   107.8981                  89.0225                   57.5674                   142.3938                  92.4175                   92.6553                   99.6393                   95.901                    81.8596                   32.5576                   102.1812                  76.5376                   86.977                    86.4002                   93.4719                   62.5859                   102.6109                  32.0                      85.0                      81.4371                   19.4165                   67.1863                   107.4895                  
2                         99999.0                   99999.0                   99999.0                   99999.0                   99999.0                   99999.0                   78.0064                   16.7631                   24.5153                   95.4149                   10.198                    68.942                    72.1734                   52.3927                   105.6835                  79.6053                   67.2681                   3.6056                    77.5242                   109.3435                  14.0357                   11.7047                   73.5527                   62.6418                   3.6056                    100.7224                  4.0                       54.0833                   82.5651                   33.2415                   99.363                    59.9083                   75.213                    52.3546                   23.4094                   9.2195                    81.3941                   26.6833                   93.4773                   34.1321                   30.2655                   65.7419                   94.4299                   95.2575                   39.0512                   75.591                    21.0238                   72.7324                   3.1623                    36.8782                   97.1648                   24.6982                   66.1891                   83.7257                   2.2361                    41.7732                   
3                         99999.0                   99999.0                   99999.0                   99999.0                   99999.0                   99999.0                   95.6033                   14.0                      6.0                       111.1261                  21.1896                   58.0345                   102.489                   24.0832                   108.462                   93.3381                   74.6324                   29.1204                   92.7631                   127.4402                  44.1814                   19.0263                   78.3901                   92.8924                   32.0624                   127.2006                  30.0167                   47.5395                   112.969                   4.4721                    113.1724                  55.0818                   92.8009                   41.3038                   8.544                     39.1152                   58.3095                   4.1231                    109.8772                  4.4721                    1.0                       79.9812                   124.0645                  108.3005                  47.8539                   89.8276                   11.7047                   83.0963                   33.541                    6.7082                    127.5774                  23.3452                   80.7217                   114.1271                  29.1548                   11.4018                   
4                         99999.0                   99999.0                   99999.0                   99999.0                   99999.0                   99999.0                   26.0768                   110.3449                  116.0                     9.434                     111.6647                  90.7083                   90.7965                   125.5388                  52.0                      27.7849                   50.6952                   107.6476                  27.6586                   10.0499                   95.7706                   107.7126                  52.3927                   103.0                     100.439                   54.4059                   100.8018                  85.0882                   103.1601                  119.3315                  12.1655                   79.712                    28.8444                   93.5201                   112.4856                  97.4166                   123.6932                  116.7776                  10.6301                   124.7397                  121.0826                  40.4599                   126.6965                  17.0                      141.0319                  30.8058                   109.6221                  40.3113                   103.1746                  123.065                   106.2826                  97.0824                   39.6989                   98.7168                   103.0049                  127.0039                  
5                         99999.0                   99999.0                   99999.0                   99999.0                   99999.0                   99999.0                   16.1245                   75.6042                   80.7217                   26.6271                   78.032                    58.0345                   81.6333                   89.5545                   43.8634                   8.4853                    17.0294                   75.1532                   9.2195                    44.2832                   65.9697                   73.4983                   22.4722                   88.2553                   68.0294                   66.4831                   67.9779                   50.0                      95.7183                   83.5464                   28.4253                   45.5412                   14.5602                   58.1893                   77.1557                   66.4078                   90.5539                   81.3449                   25.9422                   89.1067                   85.5628                   6.0828                    118.1186                  23.8537                   110.1363                  5.3852                    74.411                    8.0623                    71.3092                   87.2067                   103.7111                  61.5224                   6.0                       92.6553                   70.214                    91.0494                   
6                         99999.0                   99999.0                   99999.0                   99999.0                   99999.0                   99999.0                   81.3941                   53.4883                   51.1957                   90.5207                   62.2415                   10.6301                   122.6744                  36.4005                   68.6222                   72.7805                   49.2443                   66.7308                   74.9667                   108.9312                  72.9178                   56.3649                   47.5395                   119.8082                  63.8201                   127.7693                  61.8547                   17.4642                   136.0037                  46.0977                   88.955                    20.2237                   79.2275                   13.4536                   48.7647                   68.884                    25.0                      49.8197                   90.7083                   52.0096                   51.2445                   64.1249                   153.2221                  83.5703                   96.566                    71.0211                   48.7032                   59.6657                   67.6757                   47.0106                   148.5295                  40.4969                   65.123                    135.2036                  62.9682                   47.3814                   
7                         80.05                     78.0064                   95.6033                   26.0768                   16.1245                   81.3941                   99999.0                   84.8999                   90.9065                   18.0278                   85.7963                   74.0                      72.8011                   102.9563                  54.037                    12.8062                   33.1361                   81.6088                   8.0623                    31.8904                   69.7711                   82.0366                   38.3275                   82.201                    74.4043                   50.9902                   74.8131                   65.1153                   86.406                    94.8683                   24.0832                   61.2046                   2.8284                    73.0068                   87.4586                   71.3442                   106.3015                  91.8314                   15.6525                   100.0                     96.2133                   17.4642                   109.5628                  22.2036                   115.0043                  11.7047                   84.5044                   23.7697                   77.1038                   98.737                    92.6499                   72.4224                   16.4924                   82.7345                   77.0065                   102.9272                  
8                         82.4621                   16.7631                   14.0                      110.3449                  75.6042                   53.4883                   84.8999                   99999.0                   8.0                       101.2373                  9.2195                    59.2284                   88.5664                   35.7771                   103.846                   84.0238                   67.5426                   16.1245                   82.8794                   116.7776                  30.2655                   5.099                     72.45                     79.404                    18.1108                   113.842                   16.0312                   46.0435                   99.2472                   16.4924                   104.0192                  53.0094                   82.0731                   41.9762                   6.7082                    25.1794                   66.6033                   10.0499                   99.7246                   18.1108                   14.0357                   70.2922                   111.0856                  99.4032                   43.566                    80.2808                   5.0                       74.9466                   19.9249                   20.2237                   113.7717                  16.2788                   70.9366                   100.2846                  15.2971                   25.1794                   
9                         90.2441                   24.5153                   6.0                       116.0                     80.7217                   51.1957                   90.9065                   8.0                       99999.0                   106.7755                  15.6525                   58.1378                   96.5194                   28.8444                   106.2826                  89.1964                   71.3442                   23.4094                   88.3912                   122.7884                  38.2099                   13.0384                   75.5844                   87.0919                   26.0768                   121.4578                  24.0208                   46.3897                   107.0794                  8.9443                    109.1238                  53.7587                   88.0909                   41.0122                   3.6056                    33.1361                   61.6117                   2.2361                    105.4182                  10.198                    6.0828                    75.6637                   118.4736                  104.3504                  45.5412                   85.5862                   6.4031                    79.404                    27.6586                   12.3693                   121.6553                  19.4165                   76.3675                   108.1896                  23.1948                   17.2627                   
10                        95.7549                   95.4149                   111.1261                  9.434                     26.6271                   90.5207                   18.0278                   101.2373                  106.7755                  99999.0                   102.8008                  81.7863                   87.3212                   116.1077                  47.1699                   18.3576                   41.4367                   99.0202                   18.3848                   18.4391                   87.6641                   98.7168                   43.566                    98.326                    91.8096                   55.8659                   92.0869                   75.7694                   100.2846                  109.9864                  8.0623                    70.5195                   20.6155                   84.1724                   103.2473                  89.0674                   114.7563                  107.5174                  3.1623                    115.434                   111.8034                  31.1448                   123.7619                  10.2956                   132.8345                  21.4009                   100.4092                  31.0161                   94.6678                   113.7014                  104.6948                  87.7838                   30.4138                   96.1353                   94.3027                   117.6138                  
11                        75.1332                   10.198                    21.1896                   111.6647                  78.032                    62.2415                   85.7963                   9.2195                    15.6525                   102.8008                  99999.0                   67.4463                   82.0549                   44.4185                   109.2383                  86.2844                   71.7844                   8.0623                    84.6286                   117.4564                  24.1868                   6.0828                    77.3692                   71.8053                   13.0                      110.6933                  11.6619                   53.6004                   92.0706                   24.5967                   106.2309                  60.208                    82.9759                   50.2892                   15.6205                   19.4165                   75.8222                   17.8885                   101.0445                  24.5153                   20.8806                   72.4017                   102.8834                  101.8725                  36.0139                   82.3772                   14.2127                   78.2943                   13.0384                   27.8568                   106.7942                  23.1948                   72.9452                   93.4345                   9.8489                    32.573                    
12                        120.6151                  68.942                    58.0345                   90.7083                   58.0345                   10.6301                   74.0                      59.2284                   58.1378                   81.7863                   67.4463                   99999.0                   120.9297                  46.5188                   58.0                      64.4981                   41.1096                   70.9366                   67.1193                   100.2247                  74.8866                   61.4003                   38.3275                   119.6035                  67.082                    122.0                     65.307                    15.6205                   134.618                   54.1479                   79.6994                   13.9284                   72.0278                   17.2627                   55.3263                   71.3442                   32.9848                   57.0351                   82.201                    60.2993                   59.0339                   57.1402                   152.9706                  74.3303                   102.7716                  63.1269                   54.7449                   51.3517                   71.1126                   55.5788                   146.4923                  44.5982                   58.1378                   133.4054                  66.7083                   56.5155                   
