SET
I  first /1*66/
K(I)  depot1 /1*6/
O(I)  node1 /7*66/
alias(I,J);
alias(K,L);
alias(O,P);
TABLE C(I,J)  node to node
                          1                         2                         3                         4                         5                         6                         7                         8                         9                         10                        11                        12                        13                        14                        15                        16                        17                        18                        19                        20                        21                        22                        23                        24                        25                        26                        27                        28                        29                        30                        31                        32                        33                        34                        35                        36                        37                        38                        39                        40                        41                        42                        43                        44                        45                        46                        47                        48                        49                        50                        51                        52                        53                        54                        55                        56                        57                        58                        59                        60                        61                        62                        63                        64                        65                        66                        
1                         99999.0                   99999.0                   99999.0                   99999.0                   99999.0                   99999.0                   103.2763                  85.703                    81.0432                   140.0071                  100.896                   58.2409                   63.5689                   97.1648                   69.1158                   65.1153                   71.1969                   91.1811                   120.0708                  89.2693                   15.1327                   120.669                   43.0116                   97.5295                   94.541                    67.72                     103.0049                  88.2836                   107.4151                  69.3181                   86.1452                   100.2247                  76.922                    105.385                   106.1508                  26.0768                   141.0319                  17.8885                   109.4029                  102.489                   110.8197                  71.8679                   109.3435                  86.2786                   82.28                     90.9725                   40.3113                   106.099                   84.8999                   102.1812                  90.0278                   101.5332                  132.9699                  84.7231                   12.0                      18.1108                   19.799                    110.0636                  108.1157                  124.3543                  90.1388                   106.099                   94.5939                   30.1496                   124.2779                  104.0192                  
2                         99999.0                   99999.0                   99999.0                   99999.0                   99999.0                   99999.0                   57.0701                   20.0998                   75.7166                   91.0                      50.9608                   8.0623                    7.2111                    32.0                      19.6469                   3.0                       6.3246                    76.5572                   114.5426                  23.5372                   72.4983                   133.6862                  25.2389                   50.8035                   29.0689                   4.1231                    41.4367                   23.0                      53.2259                   16.1245                   21.0238                   34.5254                   73.0068                   105.4751                  58.6941                   40.1622                   79.9812                   48.5077                   55.4617                   114.2147                  45.2769                   41.1096                   58.5235                   45.0444                   71.1969                   62.5859                   37.3363                   40.4475                   19.3132                   95.2575                   24.3311                   51.923                    72.1388                   61.6847                   77.4661                   83.7437                   57.8014                   95.1893                   45.1221                   95.1893                   77.8203                   40.4475                   28.8617                   38.4708                   67.6757                   52.2015                   
3                         99999.0                   99999.0                   99999.0                   99999.0                   99999.0                   99999.0                   54.4243                   10.4403                   92.4554                   79.1581                   46.8188                   38.2099                   34.0147                   5.3852                    34.6554                   31.0483                   25.0                      89.1403                   126.0357                  7.0                       102.1812                  150.9868                  54.4243                   46.0                      3.1623                    29.0172                   21.0238                   8.6023                    43.566                    33.8378                   10.8167                   4.1231                    90.802                    120.2082                  54.4059                   70.342                    56.9386                   78.9177                   45.3982                   132.4387                  15.0                      53.3385                   50.9902                   51.225                    86.4523                   71.218                    65.4905                   10.0499                   12.1655                   108.3005                  6.0828                    47.7598                   50.0899                   73.5527                   107.8703                  114.1403                  86.9253                   104.6231                  20.5183                   96.933                    91.2195                   10.0499                   2.8284                    68.0074                   51.6236                   45.607                    
4                         99999.0                   99999.0                   99999.0                   99999.0                   99999.0                   99999.0                   76.6942                   115.2779                  28.4253                   95.0053                   82.2922                   98.7927                   96.8349                   125.2557                  122.6418                  106.5082                  109.2016                  32.6497                   22.4722                   115.2779                  115.1564                  30.6105                   106.4049                  154.8419                  121.6963                  101.4002                  140.0071                  118.8024                  90.8735                   90.1388                   118.1397                  122.7884                  31.0644                   7.0711                    79.1202                   100.439                   122.9715                  92.7793                   91.0                      14.1421                   132.0038                  140.8723                  85.44                     70.4557                   33.9706                   51.8845                   76.2168                   127.4402                  110.3087                  17.0                      116.6919                  81.8596                   117.3414                  47.4342                   101.2719                  104.3456                  114.4378                  29.4279                   140.8581                  54.9181                   30.0167                   127.4402                  117.5925                  106.2309                  102.2008                  85.9069                   
5                         99999.0                   99999.0                   99999.0                   99999.0                   99999.0                   99999.0                   41.9762                   80.4301                   12.1655                   67.72                     46.8188                   67.6757                   64.4748                   89.8276                   91.0                      74.3236                   76.0592                   5.099                     42.9535                   80.0562                   101.5923                  66.6108                   79.511                    121.8031                  86.3134                   68.4251                   104.8904                  83.8689                   55.6597                   56.4358                   83.4086                   87.046                    14.3178                   35.3553                   44.7214                   78.4092                   89.6772                   74.2159                   56.0446                   49.1935                   96.0469                   111.018                   50.9902                   34.4093                   5.831                     16.4924                   52.2398                   91.5478                   75.2861                   23.8537                   81.4678                   46.4866                   83.3607                   11.4018                   92.2822                   97.0979                   96.1041                   25.02                     105.3613                  38.4187                   6.4031                    91.5478                   82.0244                   83.0963                   68.593                    50.5964                   
6                         99999.0                   99999.0                   99999.0                   99999.0                   99999.0                   99999.0                   24.0208                   55.0818                   77.4145                   29.0                      21.8403                   69.029                    62.6259                   55.0818                   79.8499                   67.7422                   63.9531                   67.6831                   96.3846                   51.4198                   132.0076                  128.6934                  88.8651                   96.1301                   53.3385                   61.2944                   69.1158                   56.2939                   13.8924                   53.7587                   57.7235                   49.0102                   78.1025                   96.566                    21.095                    99.7647                   24.0208                   103.6002                  12.083                    113.6002                  50.9902                   101.1929                  15.0                      38.3275                   70.3491                   49.366                    81.6333                   49.2544                   50.9215                   83.5703                   52.1728                   21.587                    17.72                     56.0803                   131.2288                  137.379                   119.5031                  74.7061                   65.6201                   57.28                     70.6116                   49.2544                   48.5077                   100.449                   3.1623                    18.0278                   
7                         103.2763                  57.0701                   54.4243                   76.6942                   41.9762                   24.0208                   99999.0                   54.7449                   53.4603                   36.8782                   7.6158                    58.1893                   52.2015                   59.808                    75.2396                   60.0167                   58.2151                   44.2719                   76.0592                   52.3927                   115.434                   106.4378                  76.9675                   98.8433                   56.921                    52.9528                   75.3923                   57.2713                   14.4222                   42.0595                   57.8705                   55.0364                   54.0833                   74.2428                   3.1623                    84.6286                   48.0416                   86.3134                   14.3178                   90.4765                   61.2944                   97.3293                   9.0554                    17.0294                   46.3897                   25.4951                   62.9682                   57.8014                   49.4975                   61.2944                   53.6004                   6.7082                    41.4367                   32.0624                   112.2943                  118.2286                  104.6231                  54.037                    73.7902                   42.5441                   47.1275                   57.8014                   51.8652                   86.6083                   27.0                      9.8995                    
8                         85.703                    20.0998                   10.4403                   115.2779                  80.4301                   55.0818                   54.7449                   99999.0                   86.977                    83.3607                   47.3814                   28.0179                   24.3311                   12.1655                   25.807                    20.6155                   14.5602                   85.0                      122.5887                  4.2426                    91.7606                   145.6709                  44.0114                   44.1475                   9.0                       19.105                    24.8395                   3.6056                    46.0977                   26.0768                   3.1623                    14.5602                   84.9588                   115.6244                  55.3263                   59.9083                   65.0                      68.593                    48.1664                   126.732                   25.1794                   46.2385                   53.0                      48.3011                   81.3941                   68.0955                   56.0892                   20.3961                   5.3852                    104.2017                  4.4721                    48.3735                   57.6888                   69.4046                   97.4936                   103.7545                  76.5572                   101.7104                  26.8328                   96.566                    86.8332                   20.3961                   9.434                     57.5847                   56.921                    47.0425                   
9                         81.0432                   75.7166                   92.4554                   28.4253                   12.1655                   77.4145                   53.4603                   86.977                    99999.0                   79.8123                   57.7235                   70.7107                   68.5055                   97.1854                   94.5145                   78.2304                   80.8022                   13.0384                   41.4367                   87.1149                   96.0469                   58.6941                   79.8123                   126.4911                  93.6056                   73.0068                   111.7587                  90.5207                   66.7083                   61.7171                   89.8053                   95.0                      4.1231                    29.9666                   56.3205                   76.1052                   101.4002                  70.2567                   67.2681                   40.0                      104.561                   113.3181                  62.514                    43.8634                   7.0711                    28.0713                   50.4876                   99.8649                   82.0731                   22.0227                   88.5268                   57.4891                   94.8947                   21.587                    85.0882                   89.4427                   92.3472                   29.1548                   112.8051                  48.1664                   10.6301                   99.8649                   89.6437                   81.3941                   80.3057                   61.6117                   
10                        140.0071                  91.0                      79.1581                   95.0053                   67.72                     29.0                      36.8782                   83.3607                   79.8123                   99999.0                   40.8167                   93.4773                   87.2067                   84.0536                   107.28                    93.7763                   90.7579                   67.4685                   85.3756                   79.9062                   152.3056                  120.669                   112.8716                  125.1                     82.2192                   86.9253                   98.0816                   84.8528                   37.9473                   77.4145                   86.1452                   78.0064                   81.9085                   90.1998                   34.2053                   121.4002                  38.4187                   123.1666                  35.7351                   109.0413                  79.6304                   129.031                   32.6497                   53.7587                   73.3757                   54.1295                   99.7046                   78.1601                   78.8543                   78.0064                   80.7527                   39.9625                   38.0132                   61.7414                   148.7347                  154.5639                  141.4001                  66.2722                   94.4299                   42.45                     70.406                    78.1601                   77.3175                   123.1463                  28.1603                   38.9102                   
