SET
I  first /1*46/
K(I)  depot1 /1*6/
O(I)  node1 /7*46/
alias(I,J);
alias(K,L);
alias(O,P);
TABLE C(I,J)  node to node
                          1                         2                         3                         4                         5                         6                         7                         8                         9                         10                        11                        12                        13                        14                        15                        16                        17                        18                        19                        20                        21                        22                        23                        24                        25                        26                        27                        28                        29                        30                        31                        32                        33                        34                        35                        36                        37                        38                        39                        40                        41                        42                        43                        44                        45                        46                        
1                         99999.0                   99999.0                   99999.0                   99999.0                   99999.0                   99999.0                   92.5905                   34.9285                   57.5587                   101.789                   48.8365                   93.7763                   118.5327                  79.1012                   40.8044                   41.3401                   84.7585                   3.1623                    127.7693                  124.5351                  46.0435                   16.5529                   138.6795                  68.7095                   123.3288                  108.5587                  134.3317                  111.018                   74.9667                   84.0773                   84.8646                   87.0919                   74.4648                   31.0                      108.5772                  103.9423                  23.1948                   25.0799                   85.1587                   53.1601                   75.8024                   130.6331                  106.1179                  65.1153                   54.8179                   81.3449                   
2                         99999.0                   99999.0                   99999.0                   99999.0                   99999.0                   99999.0                   70.214                    96.0052                   83.3547                   96.1769                   28.8444                   122.4132                  131.5029                  87.7268                   57.2713                   99.2472                   74.3034                   64.1327                   67.9412                   67.424                    24.7588                   79.404                    80.1561                   40.0                      105.019                   78.4092                   70.7248                   56.356                    10.4403                   65.3911                   46.2709                   116.4989                  43.2897                   96.1769                   68.2642                   97.4936                   88.8426                   41.1096                   35.2278                   13.0                      28.2312                   72.6223                   114.2016                  3.0                       11.0454                   41.3038                   
3                         99999.0                   99999.0                   99999.0                   99999.0                   99999.0                   99999.0                   80.2808                   126.1428                  108.5035                  109.6586                  54.3783                   145.3616                  148.9228                  107.6151                  84.1724                   129.0155                  89.1964                   94.541                    47.7598                   50.8035                   52.8015                   109.7725                  60.1664                   54.0833                   111.5078                  82.2982                   44.6878                   45.1774                   21.5407                   78.492                    53.9073                   139.9893                  54.1202                   126.5899                  67.4166                   110.4536                  119.2393                  71.3092                   35.4401                   43.2897                   36.3593                   54.1202                   131.1373                  31.0483                   41.4367                   50.2096                   
4                         99999.0                   99999.0                   99999.0                   99999.0                   99999.0                   99999.0                   42.9535                   93.2309                   44.643                    15.0                      117.5457                  41.1096                   28.6007                   21.0                      61.5224                   87.2067                   31.241                    97.0464                   111.6288                  103.4456                  110.3087                  94.921                    114.5426                  138.6542                  38.9102                   52.469                    127.5813                  92.8493                   112.4455                  42.2019                   67.424                    40.7063                   143.5584                  105.9481                  68.1542                   16.1245                   106.48                    100.2247                  139.2695                  97.1288                   131.7649                  108.6692                  10.8167                   106.5082                  98.9798                   70.4344                   
5                         99999.0                   99999.0                   99999.0                   99999.0                   99999.0                   99999.0                   9.2195                    93.3381                   47.8853                   25.0                      90.0944                   69.3542                   64.6375                   30.0167                   46.5296                   90.1388                   6.0                       83.7735                   77.4661                   69.7209                   82.8734                   87.9204                   82.0975                   109.2016                  37.3363                   25.5539                   92.72                     57.9741                   78.8923                   6.4031                    31.4006                   66.0076                   113.5297                  103.0776                  36.1248                   26.0768                   100.6876                  78.5175                   106.4707                  67.1863                   99.8098                   75.4255                   46.8722                   74.3236                   68.6804                   34.6554                   
6                         99999.0                   99999.0                   99999.0                   99999.0                   99999.0                   99999.0                   57.2713                   142.4675                  107.7868                  85.44                     94.0319                   135.0741                  127.0157                  95.4254                   92.358                    142.3376                  71.7008                   118.7139                  12.083                    4.0                       89.4036                   130.2498                  18.0278                   101.2423                  76.2168                   48.7647                   28.8444                   10.2956                   63.1585                   61.2046                   41.0                      131.461                   102.489                   147.6482                  31.7805                   85.235                    142.1724                  100.4988                  85.3288                   73.0                      84.4808                   10.198                    110.0545                  67.7422                   72.4707                   42.3792                   
7                         92.5905                   70.214                    80.2808                   42.9535                   9.2195                    57.2713                   99999.0                   101.2373                  56.7979                   30.0                      91.1373                   78.1601                   71.1969                   39.1152                   53.0094                   98.4073                   15.1327                   89.4707                   69.1231                   61.1882                   84.0536                   94.8103                   73.2462                   109.0413                  35.2278                   17.0294                   84.7585                   49.98                     76.5572                   8.6023                    26.4008                   75.0067                   113.031                   110.4536                  27.0185                   30.4795                   107.6151                  82.0                      104.3887                  67.4759                   98.3514                   66.7533                   53.6656                   73.0821                   68.7314                   30.5287                   
8                         34.9285                   96.0052                   126.1428                  93.2309                   93.3381                   142.4675                  101.2373                  99999.0                   49.2443                   99.985                    83.2406                   73.0616                   103.8171                  74.3034                   50.6063                   8.544                     89.1964                   34.7851                   150.8807                  146.154                   79.6241                   18.3848                   160.4618                  103.6195                  125.1                     118.2582                  160.0781                  132.2309                  106.0189                  92.8493                   102.4207                  67.0                      109.3846                  14.0357                   123.1463                  102.2155                  19.2354                   58.2495                   119.3315                  83.006                    109.8818                  152.4631                  95.8801                   96.0208                   85.0                      100.2247                  
9                         57.5587                   83.3547                   108.5035                  44.643                    47.8853                   107.7868                  56.7979                   49.2443                   99999.0                   50.774                    86.5563                   40.3609                   61.0                      25.0599                   26.9072                   44.2041                   42.72                     54.7449                   118.2709                  111.7587                  79.9812                   50.4876                   125.4472                  109.1238                  76.2168                   73.4302                   131.0343                  98.326                    93.5361                   49.3964                   67.1193                   33.9411                   114.6909                  61.4654                   82.2192                   53.0                      61.8466                   64.1405                   116.211                   72.4224                   107.2986                  117.9576                  49.0918                   84.9058                   74.6324                   67.0075                   
10                        101.789                   96.1769                   109.6586                  15.0                      25.0                      85.44                     30.0                      99.985                    50.774                    99999.0                   112.7918                  55.5428                   41.6293                   25.807                    61.4003                   94.8683                   21.9317                   98.656                    97.4987                   89.1964                   105.513                   99.0202                   99.925                    132.8533                  26.2488                   37.6563                   113.719                   79.1581                   103.7738                  31.4006                   55.8659                   54.4243                   137.4191                  111.8034                  53.7587                   2.2361                    111.234                   98.1835                   131.2288                  90.824                    124.3262                  94.255                    24.7386                   98.8383                   92.477                    59.4643                   
11                        48.8365                   28.8444                   54.3783                   117.5457                  90.0944                   94.0319                   91.1373                   83.2406                   86.5563                   112.7918                  99999.0                   126.9055                  142.706                   98.387                    60.0                      88.6002                   91.2195                   48.5077                   96.5401                   96.2601                   7.2801                    65.0                      108.8531                  22.6274                   126.321                   102.3132                  97.949                    85.0882                   33.4215                   84.5931                   70.859                    120.4159                  28.3196                   79.511                    94.5939                   114.4771                  71.2531                   25.4951                   36.3456                   24.1868                   27.074                    101.4002                  126.6254                  26.4008                   23.5372                   65.9242                   
12                        93.7763                   122.4132                  145.3616                  41.1096                   69.3542                   135.0741                  78.1601                   73.0616                   40.3609                   55.5428                   126.9055                  99999.0                   34.0                      39.8121                   67.1789                   65.0                      63.3877                   91.3893                   146.6595                  139.0432                  120.3412                  82.4621                   151.4001                  149.4824                  79.8499                   91.1976                   161.4094                  126.9212                  132.3102                  73.9797                   97.5295                   6.7082                    155.0516                  87.0919                   105.0762                  57.0088                   90.7965                   104.0433                  156.0833                  112.1606                  147.3228                  144.7791                  35.5106                   124.2014                  114.3372                  98.9798                   
13                        118.5327                  131.5029                  148.9228                  28.6007                   64.6375                   127.0157                  71.1969                   103.8171                  61.0                      41.6293                   142.706                   34.0                      99999.0                   44.4185                   83.9345                   96.3379                   59.8164                   115.7411                  139.0863                  130.7402                  135.595                   110.0727                  141.0886                  164.478                   58.0                      78.7464                   155.348                   120.7684                  140.264                   70.8025                   96.0208                   38.2753                   169.6143                  117.6138                  95.2733                   41.7852                   120.0666                  123.13                    166.6433                  123.7093                  158.8081                  135.6798                  17.8045                   133.8432                  125.6702                  99.0202                   
14                        79.1012                   87.7268                   107.6151                  21.0                      30.0167                   95.4254                   39.1152                   74.3034                   25.0599                   25.807                    98.387                    39.8121                   44.4185                   99999.0                   40.7922                   69.0652                   24.0208                   76.0592                   106.9205                  99.4082                   91.2414                   74.4648                   112.0402                  120.0666                  51.6624                   53.8516                   121.5977                  87.1321                   96.8969                   34.2345                   57.8705                   36.0555                   125.1958                  86.406                    66.1211                   28.0179                   86.3308                   79.8123                   122.6744                  79.404                    114.6342                  105.2331                  28.4605                   89.9389                   81.4002                   59.6154                   
15                        40.8044                   57.2713                   84.1724                   61.5224                   46.5296                   92.358                    53.0094                   50.6063                   26.9072                   61.4003                   60.0                      67.1789                   83.9345                   40.7922                   99999.0                   49.98                     44.0114                   37.6431                   101.3903                  96.1353                   53.2635                   41.8688                   110.3857                  82.4621                   82.5409                   69.6563                   112.0089                  82.2192                   67.624                    44.4072                   51.8941                   60.8276                   87.9659                   58.0517                   72.8011                   63.5059                   54.6717                   39.2173                   89.4036                   45.793                    80.4301                   102.4597                  69.1231                   58.5918                   48.0208                   49.98                     
