SET
I  first /1*56/
K(I)  depot1 /1*6/
O(I)  node1 /7*56/
alias(I,J);
alias(K,L);
alias(O,P);
TABLE C(I,J)  node to node
                          1                         2                         3                         4                         5                         6                         7                         8                         9                         10                        11                        12                        13                        14                        15                        16                        17                        18                        19                        20                        21                        22                        23                        24                        25                        26                        27                        28                        29                        30                        31                        32                        33                        34                        35                        36                        37                        38                        39                        40                        41                        42                        43                        44                        45                        46                        47                        48                        49                        50                        51                        52                        53                        54                        55                        56                        
1                         99999.0                   99999.0                   99999.0                   99999.0                   99999.0                   99999.0                   100.896                   44.6542                   32.9848                   47.8017                   16.1245                   106.0                     46.1411                   122.6907                  55.6597                   13.6015                   108.074                   102.1078                  100.1249                  34.3657                   26.0768                   108.3421                  109.1146                  97.7446                   84.1487                   103.0                     39.6989                   81.5843                   100.8067                  69.0797                   111.252                   105.9906                  14.4222                   102.1763                  137.3536                  118.5116                  75.1864                   39.6989                   101.1237                  123.4342                  95.1893                   78.1025                   79.0759                   95.3415                   31.0644                   44.1022                   85.44                     145.2446                  81.3019                   18.2483                   79.4292                   102.7716                  95.4149                   52.345                    108.3005                  32.2025                   
2                         99999.0                   99999.0                   99999.0                   99999.0                   99999.0                   99999.0                   63.0                      28.7924                   96.2549                   29.5296                   50.4876                   111.252                   48.0208                   64.405                    11.1803                   66.2118                   110.6752                  98.9798                   103.4698                  100.02                    41.6293                   43.0465                   49.2443                   89.8944                   22.3607                   108.8118                  35.7351                   80.8022                   95.2943                   102.4744                  55.9464                   40.2616                   76.896                    111.6647                  75.8222                   59.9333                   9.4868                    53.2635                   110.2588                  71.5891                   92.9624                   76.4003                   81.0555                   76.2168                   95.8853                   23.3238                   110.6029                  102.3572                  87.2067                   49.3964                   14.0                      97.0618                   66.0984                   24.1868                   60.1664                   97.4166                   
3                         99999.0                   99999.0                   99999.0                   99999.0                   99999.0                   99999.0                   65.2993                   57.2189                   126.5701                  56.7186                   80.895                    127.4049                  73.7631                   43.2782                   41.1096                   95.8593                   125.873                   113.1459                  119.6704                  130.4186                  71.4703                   13.3417                   29.1548                   103.2763                  18.0278                   125.3994                  64.2806                   98.4073                   108.9312                  127.8124                  44.1022                   10.2956                   106.9018                  129.3213                  52.4786                   39.2046                   21.095                    78.8162                   127.914                   60.0                      108.2451                  94.4034                   99.6243                   86.6833                   126.2894                  52.811                    133.2967                  94.0851                   106.2544                  79.404                    16.7631                   110.3902                  73.2393                   49.3964                   54.8179                   127.6127                  
4                         99999.0                   99999.0                   99999.0                   99999.0                   99999.0                   99999.0                   63.9062                   81.939                    98.7927                   78.721                    92.5419                   7.2111                    62.9365                   163.3799                  96.3846                   113.0                     8.0                       11.0454                   1.0                       111.6647                  104.3456                  132.28                    148.4924                  19.6469                   124.1974                  5.0                       78.4347                   23.3238                   15.0333                   46.8615                   94.1541                   124.2014                  112.641                   10.198                    122.1229                  159.1132                  107.1681                  128.6546                  9.0554                    92.1954                   12.53                     27.7849                   23.7697                   37.3363                   104.0625                  104.9238                  33.2866                   87.1321                   19.2354                   103.9471                  112.6987                  15.0333                   52.0                      116.3615                  80.6536                   118.6802                  
5                         99999.0                   99999.0                   99999.0                   99999.0                   99999.0                   99999.0                   30.0666                   55.0818                   97.6729                   51.1566                   74.7262                   42.8019                   41.4849                   128.0352                  65.8027                   97.719                    41.0366                   28.3196                   35.2278                   108.8531                  82.3893                   96.4261                   113.3578                  18.6011                   90.1388                   41.0488                   54.1479                   18.0                      24.2074                   62.0967                   59.203                    88.2383                   101.1336                  45.6508                   88.2836                   123.8426                  73.2462                   106.0754                  44.2945                   60.0                      23.6008                   16.4924                   21.095                    8.6023                    101.5332                  77.6466                   58.0345                   65.5134                   27.0185                   84.5281                   78.492                    25.807                    18.0                      87.8635                   46.5296                   113.1592                  
6                         99999.0                   99999.0                   99999.0                   99999.0                   99999.0                   99999.0                   35.9026                   76.6094                   144.931                   73.4983                   105.2093                  105.3423                  81.7068                   86.1278                   70.1783                   126.1507                  102.3181                  89.5377                   98.6712                   152.6892                  102.5329                  53.6004                   75.6637                   80.0062                   66.7083                   104.3552                  81.8352                   83.6002                   85.0941                   125.1439                  10.0                      45.1774                   134.8073                  109.7679                  22.561                    83.1986                   58.1378                   118.2244                  108.5219                  11.1803                   87.3613                   81.2219                   86.3713                   62.3618                   146.7106                  86.6833                   123.584                   44.911                    92.6553                   109.0413                  58.8727                   85.7963                   48.0521                   89.3588                   19.2354                   153.1013                  
7                         100.896                   63.0                      65.2993                   63.9062                   30.0666                   35.9026                   99999.0                   59.4811                   118.8108                  55.4707                   86.0233                   69.857                    55.9017                   107.912                   61.9839                   109.0                     67.082                    54.1295                   62.9682                   128.4251                  88.5664                   74.6324                   94.414                    44.3847                   75.6902                   68.7095                   62.1289                   48.0416                   49.6588                   91.0824                   30.4138                   65.8027                   115.2562                  74.0                      58.4637                   104.1009                  60.6712                   109.4166                  72.7324                   30.0666                   51.5461                   46.0435                   51.0                      26.5707                   121.6594                  77.6209                   88.0909                   44.4072                   57.0789                   93.1504                   64.5368                   50.5371                   12.1655                   84.8528                   16.7631                   130.8167                  
8                         44.6542                   28.7924                   57.2189                   81.939                    55.0818                   76.6094                   59.4811                   99999.0                   71.0634                   4.1231                    28.6007                   89.0505                   20.5183                   93.1075                   17.8885                   50.3289                   89.3197                   79.1202                   81.5414                   77.0779                   29.1548                   70.4557                   78.0                      71.3863                   51.0784                   86.3308                   7.0711                    58.8727                   76.1577                   74.0945                   66.6108                   66.0                      58.258                    88.193                    93.0376                   88.6397                   36.6742                   51.4782                   86.8332                   79.2086                   72.4224                   54.4243                   58.1808                   62.0322                   71.7844                   23.0868                   83.4865                   103.5857                  63.5295                   33.8378                   42.2019                   78.1025                   57.0088                   34.4384                   64.4438                   76.6616                   
9                         32.9848                   96.2549                   126.5701                  98.7927                   97.6729                   144.931                   118.8108                  71.0634                   99999.0                   73.0821                   46.0                      103.0922                  63.6318                   155.4252                  85.4751                   41.6773                   106.2826                  104.2017                  99.1615                   13.1529                   58.8558                   139.2911                  141.598                   102.9272                  116.0388                  100.2447                  64.56                     86.5332                   104.3168                  56.3205                   135.1481                  136.0662                  31.241                    97.5295                   163.2728                  151.1985                  105.4751                  70.7107                   96.8401                   145.1206                  98.0051                   84.4038                   83.2166                   106.2168                  6.0828                    76.1643                   74.4312                   161.6168                  82.7647                   51.1957                   110.2225                  106.066                   110.6345                  85.1587                   129.4952                  22.2036                   
10                        47.8017                   29.5296                   56.7186                   78.721                    51.1566                   73.4983                   55.4707                   4.1231                    73.0821                   99999.0                   31.8904                   85.8662                   18.6011                   93.9149                   19.2094                   54.037                    86.0058                   75.5844                   78.2943                   79.6241                   33.2415                   70.0357                   78.721                    67.6831                   51.8845                   83.1865                   8.544                     55.5428                   72.5328                   72.9452                   63.5138                   65.123                    61.6198                   85.235                    90.471                    89.4427                   36.6879                   55.5788                   83.863                    75.743                    68.9493                   51.0784                   55.0091                   58.0086                   74.0945                   26.6833                   81.5659                   99.6444                   60.5392                   37.7359                   42.3792                   74.4648                   52.8867                   37.6962                   60.8276                   79.6116                   
11                        16.1245                   50.4876                   80.895                    92.5419                   74.7262                   105.2093                  86.0233                   28.6007                   46.0                      31.8904                   99999.0                   98.9949                   33.2415                   110.0227                  40.025                    23.2594                   100.4988                  93.0054                   92.4392                   49.7293                   15.6205                   93.4345                   95.8853                   87.4643                   70.0643                   96.026                    24.0832                   72.0278                   91.1373                   68.8186                   95.2103                   90.6091                   29.7321                   96.1041                   121.2353                  105.7213                  59.8415                   37.5766                   94.921                    107.629                   86.0058                   68.1175                   70.0071                   82.8613                   45.3982                   30.4138                   83.1865                   130.4301                  73.3348                   11.7047                   64.3817                   93.1343                   81.4125                   40.4969                   92.6337                   48.3011                   
12                        106.0                     111.252                   127.4049                  7.2111                    42.8019                   105.3423                  69.857                    89.0505                   103.0922                  85.8662                   98.9949                   99999.0                   69.8928                   170.4259                  103.5857                  119.0672                  4.4721                    15.8114                   7.8102                    116.0905                  111.0856                  139.1761                  155.5699                  25.4951                   131.3659                  3.0                       85.44                     30.5287                   20.2485                   49.3964                   100.2247                  131.0343                  118.2709                  7.2111                    127.7576                  166.1716                  114.3372                  135.3662                  7.0711                    97.5295                   19.2094                   34.9857                   30.8707                   43.382                    108.5219                  112.0045                  33.9411                   90.3549                   25.9615                   110.4762                  119.8541                  19.6469                   58.1378                   123.4828                  86.539                    123.4544                  
