SET
I  first /1*66/
K(I)  depot1 /1*6/
O(I)  node1 /7*66/
alias(I,J);
alias(K,L);
alias(O,P);
TABLE C(I,J)  node to node
                          1                         2                         3                         4                         5                         6                         7                         8                         9                         10                        11                        12                        13                        14                        15                        16                        17                        18                        19                        20                        21                        22                        23                        24                        25                        26                        27                        28                        29                        30                        31                        32                        33                        34                        35                        36                        37                        38                        39                        40                        41                        42                        43                        44                        45                        46                        47                        48                        49                        50                        51                        52                        53                        54                        55                        56                        57                        58                        59                        60                        61                        62                        63                        64                        65                        66                        
1                         99999.0                   99999.0                   99999.0                   99999.0                   99999.0                   99999.0                   101.8332                  72.6911                   98.5089                   86.406                    97.0464                   91.0659                   113.4416                  16.6433                   87.5957                   97.2934                   68.0074                   77.3692                   30.4138                   122.0369                  92.0869                   69.8713                   100.4042                  140.4706                  97.3293                   9.4868                    61.8142                   88.0568                   114.1271                  53.7587                   126.7517                  101.5332                  87.2983                   105.0                     56.2939                   8.0623                    61.327                    101.5332                  126.1269                  101.2028                  141.1559                  105.019                   95.5249                   53.1601                   69.3758                   129.5415                  137.9275                  125.9603                  71.5681                   107.0561                  145.1654                  122.1229                  83.7257                   15.5242                   16.4924                   99.8499                   101.8676                  70.7248                   60.407                    36.8917                   107.1681                  127.7811                  45.1774                   121.6306                  145.4991                  140.6165                  
2                         99999.0                   99999.0                   99999.0                   99999.0                   99999.0                   99999.0                   115.434                   9.434                     99.0202                   70.2638                   105.8915                  34.9285                   49.2544                   73.0068                   114.4028                  31.5753                   66.6033                   11.7047                   39.4462                   123.1666                  102.7278                  26.4764                   101.2423                  109.0183                  99.2975                   57.8705                   5.831                     22.4722                   49.0102                   13.1529                   118.1059                  51.923                    22.0                      52.0                      65.6049                   73.7564                   97.9898                   51.923                    111.6826                  94.3663                   107.2287                  39.2938                   96.5194                   13.0                      69.4262                   71.0634                   77.1038                   145.0414                  9.2195                    57.5674                   98.6813                   142.1443                  86.2148                   52.5547                   82.2253                   113.9517                  36.1386                   39.0                      84.0595                   46.8188                   108.7566                  84.9294                   24.7386                   57.4543                   112.2185                  102.9563                  
3                         99999.0                   99999.0                   99999.0                   99999.0                   99999.0                   99999.0                   134.2013                  24.1661                   114.6298                  83.4386                   123.8467                  31.3847                   21.4709                   103.1746                  137.3062                  1.4142                    86.6083                   19.0263                   68.7095                   136.6931                  121.6059                  39.8246                   116.7262                  107.7033                  115.434                   88.0568                   34.4819                   9.4868                    19.4165                   43.1045                   127.8828                  47.7598                   9.434                     44.1475                   89.1572                   104.1393                  124.3262                  47.7598                   119.365                   107.5639                  104.561                   9.434                     112.6099                  43.2897                   89.3588                   52.2015                   54.5894                   163.8353                  25.4951                   51.6624                   88.0511                   161.4001                  104.2017                  82.5651                   112.5877                  133.0038                  6.4031                    54.6443                   108.6324                  74.8131                   123.7457                  78.9177                   54.0093                   31.4006                   109.444                   98.3107                   
4                         99999.0                   99999.0                   99999.0                   99999.0                   99999.0                   99999.0                   17.0294                   112.8007                  6.3246                    37.4433                   7.6158                    91.022                    141.3542                  86.977                    36.2353                   120.5073                  38.4838                   107.7126                  108.1712                  22.0227                   11.3137                   128.6313                  5.0                       66.4831                   5.0                       103.1213                  106.5317                  111.7587                  137.6118                  95.3834                   30.2324                   81.8596                   118.1059                  88.1419                   45.7056                   101.7104                  52.6972                   81.8596                   35.609                    17.0294                   70.5195                   123.4058                  7.8102                    97.1288                   35.8469                   109.2016                  120.3329                  44.2945                   113.0044                  82.6378                   93.3435                   42.5441                   18.3848                   104.5801                  105.9056                  17.0294                   121.6594                  66.5282                   41.4849                   70.8308                   7.2801                    78.0256                   86.8159                   122.0901                  72.2357                   75.9276                   
5                         99999.0                   99999.0                   99999.0                   99999.0                   99999.0                   99999.0                   51.4782                   79.6492                   30.0                      1.4142                    40.7185                   55.0                      105.5509                  78.7718                   62.0725                   84.8646                   20.5183                   73.4983                   85.0941                   52.2015                   39.8497                   97.4987                   32.0156                   54.4059                   31.0644                   86.6833                   75.0267                   76.4853                   101.671                   65.2534                   46.8402                   46.4866                   83.2406                   52.811                    33.3017                   91.2414                   63.6946                   46.4866                   42.0476                   23.0217                   55.9732                   87.4586                   28.3019                   67.1863                   20.6155                   75.6637                   86.8332                   80.2621                   80.0625                   48.0521                   68.942                    78.2943                   23.1948                   86.122                    97.7548                   50.6952                   85.7963                   32.6497                   45.618                    50.9608                   38.8973                   51.264                    59.3043                   86.406                    59.8164                   57.4891                   
6                         99999.0                   99999.0                   99999.0                   99999.0                   99999.0                   99999.0                   116.211                   65.7951                   93.3006                   64.6297                   105.513                   31.1448                   61.6117                   121.6553                  127.6636                  49.163                    79.1581                   56.3649                   101.9117                  109.1788                  105.3233                  86.3771                   94.8683                   63.2851                   94.921                    115.8836                  71.0211                   49.0408                   55.7853                   71.5052                   95.4411                   21.587                    56.5155                   16.5529                   88.2836                   128.4134                  124.7878                  21.587                    84.8116                   83.2166                   59.0593                   45.0999                   92.4446                   73.0                      81.0555                   10.0                      21.095                    143.3771                  67.1193                   18.0                      38.0526                   142.0035                  88.955                    111.9464                  136.7516                  115.6936                  46.0                      53.4883                   106.4707                  88.1022                   100.09                    32.7567                   76.6942                   28.6531                   63.5059                   51.4782                   
7                         101.8332                  115.434                   134.2013                  17.0294                   51.4782                   116.211                   99999.0                   124.5231                  23.1948                   52.8015                   10.7703                   105.8159                  155.4252                  87.0919                   23.4307                   134.4024                  48.8365                   120.283                   114.3897                  26.4008                   12.7279                   138.8092                  22.0227                   82.28                     21.3776                   106.3015                  117.2902                  125.2517                  151.9901                  105.603                   41.6173                   97.8621                   131.1373                  104.1777                  52.3546                   102.1225                  46.5725                   97.8621                   49.6588                   34.0588                   86.5852                   137.8441                  23.7697                   107.2007                  46.0109                   125.8769                  137.0328                  29.7321                   124.5793                  98.9798                   110.2225                  27.2029                   30.0                      108.6692                  105.0428                  2.0                       135.9154                  79.6492                   41.4367                   77.3886                   19.9249                   95.0474                   95.9635                   137.884                   87.9318                   92.3959                   
8                         72.6911                   9.434                     24.1661                   112.8007                  79.6492                   65.7951                   124.5231                  99999.0                   107.6476                  78.2943                   114.8651                  37.4833                   41.0                      81.0987                   123.8103                  25.4951                   75.6902                   9.4868                    44.5982                   131.5485                  111.8034                  21.2132                   109.859                   114.1578                  108.0046                  64.3273                   11.0                      18.3848                   41.4367                   22.1359                   125.8014                  55.3263                   14.8661                   54.3415                   75.0                      80.7527                   107.3546                  55.3263                   118.9285                  102.5768                  112.0045                  33.541                    105.2093                  21.587                    78.5175                   70.4911                   75.2861                   154.1752                  1.4142                    60.6712                   101.1385                  151.3209                  95.1315                   58.6941                   89.1067                   123.0691                  30.4138                   47.0106                   93.4933                   56.0803                   117.3243                  88.5664                   33.8378                   53.9073                   117.0043                  107.1681                  
9                         98.5089                   99.0202                   114.6298                  6.3246                    30.0                      93.3006                   23.1948                   107.6476                  99999.0                   31.4006                   13.0384                   85.0                      135.4732                  86.122                    40.8534                   114.6909                  34.4819                   102.3035                  104.9238                  25.0                      15.2315                   123.9435                  2.2361                    61.7414                   2.2361                    101.005                   101.7104                  106.066                   131.6549                  90.7855                   29.1548                   75.5844                   112.5389                  81.8596                   43.0465                   100.6231                  54.6717                   75.5844                   32.5576                   11.0454                   65.5515                   117.4436                  3.0                       92.5743                   32.0156                   102.8834                  114.0175                  50.5371                   107.8981                  76.3217                   87.5728                   48.8467                   15.0333                   102.1225                  105.2616                  23.0217                   115.7454                  61.0737                   41.6293                   67.7422                   9.8489                    72.0                      82.6378                   115.8361                  67.5426                   70.6045                   
10                        86.406                    70.2638                   83.4386                   37.4433                   1.4142                    64.6297                   52.8015                   78.2943                   31.4006                   99999.0                   42.0476                   53.6004                   104.1393                  78.492                    63.1269                   83.4506                   20.5183                   72.111                    84.1487                   53.6004                   41.1096                   96.2081                   33.4215                   54.6443                   32.45                     86.0233                   73.736                    75.0733                   100.2646                  64.0312                   48.0833                   45.2217                   81.8352                   51.5461                   33.2415                   90.824                    64.2573                   45.2217                   43.1045                   24.4131                   56.0803                   86.0523                   29.6816                   65.9697                   20.8087                   74.5453                   85.7088                   81.6333                   78.7147                   46.8722                   68.4471                   79.6492                   24.3311                   85.3756                   97.4166                   52.0                      84.386                    31.305                    46.0977                   50.2892                   40.3113                   50.6952                   58.2151                   85.0882                   60.0                      57.3847                   
