SET
I  first /1*46/
K(I)  depot1 /1*6/
O(I)  node1 /7*46/
alias(I,J);
alias(K,L);
alias(O,P);
TABLE C(I,J)  node to node
                          1                         2                         3                         4                         5                         6                         7                         8                         9                         10                        11                        12                        13                        14                        15                        16                        17                        18                        19                        20                        21                        22                        23                        24                        25                        26                        27                        28                        29                        30                        31                        32                        33                        34                        35                        36                        37                        38                        39                        40                        41                        42                        43                        44                        45                        46                        
1                         99999.0                   99999.0                   99999.0                   99999.0                   99999.0                   99999.0                   84.4808                   49.0408                   92.1141                   92.6553                   45.2217                   42.2019                   69.7209                   126.4002                  145.8664                  118.8486                  46.2277                   87.7268                   160.3122                  81.4923                   119.2057                  52.0096                   33.541                    89.1852                   104.561                   43.1856                   70.214                    91.9239                   122.0656                  99.905                    101.671                   106.5129                  173.9483                  36.1248                   77.8781                   102.1078                  43.0116                   56.0892                   48.2597                   46.5188                   144.0139                  75.7694                   100.045                   103.8123                  119.0                     155.3222                  
2                         99999.0                   99999.0                   99999.0                   99999.0                   99999.0                   99999.0                   100.449                   17.0294                   64.7611                   93.4773                   82.8734                   59.9333                   76.3675                   94.0                      90.9725                   137.2443                  52.1536                   49.163                    114.2322                  38.0789                   77.1038                   73.0616                   98.6712                   46.9574                   99.2975                   66.2118                   5.3852                    45.4863                   56.8595                   60.0333                   64.0                      43.9318                   123.065                   53.7587                   12.1655                   47.634                    70.7743                   27.5136                   18.868                    88.2326                   113.0177                  108.0463                  40.2492                   38.0789                   57.0088                   109.444                   
3                         99999.0                   99999.0                   99999.0                   99999.0                   99999.0                   99999.0                   121.2642                  47.3814                   73.4098                   109.8772                  110.4219                  86.5852                   97.2471                   93.9202                   73.7631                   156.2082                  75.9276                   55.6058                   102.489                   42.72                     73.0068                   98.3514                   128.8449                  47.8539                   112.5389                  92.8924                   25.9615                   43.2897                   28.4253                   61.7171                   66.1891                   24.1868                   107.0047                  80.1561                   18.2483                   35.6931                   97.7446                   49.8197                   48.3839                   116.1034                  111.5706                  132.7742                  23.7697                   8.0623                    32.0156                   98.2497                   
4                         99999.0                   99999.0                   99999.0                   99999.0                   99999.0                   99999.0                   20.6155                   96.1509                   50.0899                   10.6301                   59.7746                   59.3043                   31.5753                   60.6712                   110.3676                  37.1618                   132.9097                  66.5733                   102.3914                  141.5097                  73.5527                   48.0937                   119.9208                  150.632                   14.3178                   57.0                      108.6002                  149.5125                  128.0156                  66.8506                   63.5689                   108.5587                  121.2023                  126.115                   109.8772                  150.446                   57.2189                   122.1556                  104.6948                  62.7694                   68.0294                   44.5982                   140.8013                  123.2274                  152.3975                  98.656                    
5                         99999.0                   99999.0                   99999.0                   99999.0                   99999.0                   99999.0                   43.1856                   67.2681                   15.1327                   25.9422                   60.6053                   45.793                    26.4008                   41.7253                   80.7527                   72.9452                   109.0183                  30.5287                   81.6333                   109.6586                  44.3847                   43.2782                   114.5469                  118.5327                  28.0179                   47.634                    75.591                    116.7647                  92.1303                   32.3883                   30.0167                   72.5603                   98.8433                   104.2353                  75.7166                   116.2497                  50.9313                   93.3916                   76.2955                   66.0303                   57.6888                   63.7887                   106.0424                  87.3212                   116.7262                  77.026                    
6                         99999.0                   99999.0                   99999.0                   99999.0                   99999.0                   99999.0                   108.9036                  76.4199                   50.636                    90.7083                   116.1809                  93.6056                   89.0056                   52.4023                   25.807                    136.6236                  117.3456                  39.4588                   52.2398                   92.1954                   30.4138                   99.6393                   154.4862                  98.0051                   87.4643                   98.7623                   64.4127                   93.5361                   36.2353                   33.3766                   36.1386                   26.0768                   58.1808                   118.4061                  57.7754                   85.0235                   103.5809                  92.1792                   82.6196                   122.2497                  66.7308                   128.0                     73.0068                   46.0435                   72.8011                   48.0416                   
7                         84.4808                   100.449                   121.2642                  20.6155                   43.1856                   108.9036                  99999.0                   89.6437                   58.3095                   21.5407                   41.3038                   47.0106                   24.2074                   77.1622                   123.199                   37.4433                   121.6306                  71.8401                   119.2183                  136.2351                  86.2844                   33.5261                   101.2028                  145.4545                  33.0151                   43.0116                   105.4751                  145.0965                  133.1953                  75.5381                   73.171                    113.2961                  137.6408                  113.842                   108.2312                  147.9899                  41.7732                   114.5469                  97.4166                   43.4166                   86.954                    24.4131                   139.4633                  125.2996                  153.1013                  115.1347                  
8                         49.0408                   17.0294                   47.3814                   96.1509                   67.2681                   76.4199                   89.6437                   99999.0                   64.0312                   85.9069                   67.5426                   45.8039                   66.2873                   96.5091                   102.0686                  127.0039                  44.3847                   51.6624                   122.1188                  46.6905                   82.6378                   59.6657                   82.28                     55.9017                   93.6056                   51.8652                   22.0227                   55.9732                   73.0548                   63.8905                   67.1863                   58.3095                   132.8796                  42.9418                   29.1548                   61.2944                   56.0803                   26.2488                   9.0554                    72.6154                   115.5725                  94.4034                   55.6597                   54.9181                   73.3485                   117.1836                  
9                         92.1141                   64.7611                   73.4098                   50.0899                   15.1327                   50.636                    58.3095                   64.0312                   99999.0                   40.4969                   72.0694                   53.7587                   40.025                    34.4384                   66.2873                   87.2353                   107.7868                  17.8045                   70.4344                   102.489                   30.8707                   54.5894                   122.0246                  111.0                     39.8246                   57.0088                   68.0074                   108.6324                  78.032                    17.2627                   15.0333                   58.8218                   86.6083                   104.3456                  66.7083                   106.5505                  61.0328                   89.202                    73.0068                   77.8267                   52.811                    78.4092                   95.7183                   74.9667                   104.8046                  65.6049                   
10                        92.6553                   93.4773                   109.8772                  10.6301                   25.9422                   90.7083                   21.5407                   85.9069                   40.4969                   99999.0                   55.0091                   51.0098                   23.0217                   55.6597                   103.0049                  47.0106                   123.5557                  56.4358                   97.719                    131.0267                  66.0076                   41.2311                   114.5862                  140.1321                  13.0384                   49.4975                   98.0051                   138.9568                  118.072                   57.5674                   54.5711                   98.4886                   116.211                   117.0982                  99.2472                   139.8177                  50.448                    112.0045                  94.541                    58.8303                   65.7343                   45.6508                   130.1768                  112.8007                  141.8732                  93.6803                   
11                        45.2217                   82.8734                   110.4219                  59.7746                   60.6053                   116.1809                  41.3038                   67.5426                   72.0694                   55.0091                   99999.0                   24.0832                   35.3836                   102.1763                  136.7041                  73.7564                   87.6584                   76.922                    142.0035                  112.3299                  102.8834                  17.4929                   60.1664                   121.2477                  68.0                      18.0                      88.2553                   122.3315                  130.0961                  86.1626                   85.9069                   111.0045                  158.6474                  78.5493                   93.6803                   128.7983                  13.0                      87.6185                   72.7186                   6.0828                    116.7262                  30.8869                   122.9309                  116.559                   139.7784                  137.2953                  
12                        42.2019                   59.9333                   86.5852                   59.3043                   45.793                    93.6056                   47.0106                   45.8039                   53.7587                   51.0098                   24.0832                   99999.0                   28.0                      86.8332                   115.395                   84.119                    74.6726                   55.0364                   124.0846                  92.0978                   83.6002                   14.2127                   68.8186                   101.2373                  62.514                    6.3246                    65.307                    101.671                   106.0424                  65.5134                   66.0303                   87.0517                   139.6173                  67.1863                   70.2282                   106.8504                  11.1803                   68.7677                   52.345                    30.0167                   103.465                   48.6004                   100.1798                  92.5743                   116.456                   119.2057                  
13                        69.7209                   76.3675                   97.2471                   31.5753                   26.4008                   89.0056                   24.2074                   66.2873                   40.025                    23.0217                   35.3836                   28.0                      99999.0                   67.2012                   106.3015                  60.959                    101.3903                  50.2494                   107.912                   112.6144                  70.5195                   19.2354                   93.0376                   121.8236                  34.9285                   26.6833                   81.3449                   121.2642                  110.44                    56.3205                   54.9181                   90.5207                   125.2398                  94.541                    84.0238                   123.8426                  28.2312                   91.7878                   74.4312                   40.3609                   81.3449                   39.0128                   115.2562                  101.5185                  129.0039                  103.3538                  
14                        126.4002                  94.0                      93.9202                   60.6712                   41.7253                   52.4023                   77.1622                   96.5091                   34.4384                   55.6597                   102.1763                  86.8332                   67.2012                   99999.0                   53.1413                   94.1913                   140.8119                  45.1774                   42.0595                   129.8692                  22.2036                   84.9588                   155.6021                  137.6118                  46.3897                   89.1964                   96.1301                   134.3466                  88.0057                   34.0588                   30.0                      72.8972                   60.6383                   138.0507                  92.7793                   129.4025                  92.6337                   120.337                   105.2236                  107.4477                  19.105                    100.8464                  117.6435                  92.7038                   122.0901                  38.0789                   
15                        145.8664                  90.9725                   73.7631                   110.3676                  80.7527                   25.807                    123.199                   102.0686                  66.2873                   103.0049                  136.7041                  115.395                   106.3015                  53.1413                   99999.0                   145.9863                  143.1223                  60.3738                   32.573                    116.3873                  37.0                      119.5408                  178.8072                  121.5113                  96.7471                   120.0167                  90.05                     116.709                   53.0377                   50.5964                   51.4198                   49.98                     33.2415                   144.2012                  83.1865                   106.7942                  124.6154                  117.8346                  108.4066                  142.678                   60.6053                   144.5337                  95.0368                   68.2495                   91.1373                   29.9666                   
