SET
I  first /1*56/
K(I)  depot1 /1*6/
O(I)  node1 /7*56/
alias(I,J);
alias(K,L);
alias(O,P);
TABLE C(I,J)  node to node
                          1                         2                         3                         4                         5                         6                         7                         8                         9                         10                        11                        12                        13                        14                        15                        16                        17                        18                        19                        20                        21                        22                        23                        24                        25                        26                        27                        28                        29                        30                        31                        32                        33                        34                        35                        36                        37                        38                        39                        40                        41                        42                        43                        44                        45                        46                        47                        48                        49                        50                        51                        52                        53                        54                        55                        56                        
1                         99999.0                   99999.0                   99999.0                   99999.0                   99999.0                   99999.0                   150.0833                  42.9535                   59.0339                   66.3702                   118.6086                  95.4149                   93.6056                   88.0057                   84.8999                   125.6065                  100.6578                  86.5563                   71.5891                   95.5249                   133.6899                  34.176                    106.4049                  61.7171                   39.2173                   91.0824                   55.0273                   118.5116                  152.7514                  135.1037                  79.1581                   126.5069                  84.2021                   121.3342                  88.1192                   37.2156                   133.9888                  99.4636                   43.9659                   121.1487                  60.4152                   52.3927                   124.2014                  131.3659                  72.8011                   16.6433                   136.0331                  107.8564                  94.9368                   122.9715                  123.2234                  77.1038                   67.0075                   88.8426                   47.1699                   89.0505                   
2                         99999.0                   99999.0                   99999.0                   99999.0                   99999.0                   99999.0                   92.3147                   41.4005                   86.4523                   22.0907                   60.3738                   66.0984                   118.8486                  27.7849                   19.3132                   82.7647                   127.4402                  51.6236                   15.0333                   113.1459                  86.6487                   32.1403                   87.6413                   100.3195                  38.8973                   50.0899                   35.1141                   127.4127                  98.1835                   87.9204                   87.046                    84.5281                   53.6004                   128.7051                  67.0671                   29.1548                   98.326                    33.7343                   22.0907                   57.7062                   28.4429                   54.2033                   69.4622                   88.295                    29.6142                   50.3587                   94.1488                   130.2306                  32.5269                   140.8581                  67.4166                   23.0217                   28.2312                   109.1238                  25.4951                   23.3452                   
3                         99999.0                   99999.0                   99999.0                   99999.0                   99999.0                   99999.0                   72.0902                   66.8506                   111.6647                  38.8973                   40.0                      73.2393                   141.0319                  19.9249                   12.1655                   77.1038                   149.5861                  59.6657                   30.6757                   133.4054                  77.026                    62.514                    96.2601                   126.9212                  65.8635                   50.636                    56.6392                   143.628                   80.6536                   78.0064                   106.7801                  79.2465                   63.7024                   144.2567                  78.5684                   59.203                    95.5667                   3.6056                    52.469                    30.4138                   48.1041                   78.1857                   55.2268                   81.6149                   43.2666                   80.7527                   87.5728                   150.8807                  19.3132                   159.4553                  52.345                    29.4109                   46.0652                   130.5105                  52.7731                   7.0711                    
4                         99999.0                   99999.0                   99999.0                   99999.0                   99999.0                   99999.0                   119.8207                  123.0813                  44.5982                   123.6649                  159.8124                  52.0                      34.7851                   129.8345                  110.3087                  77.1038                   40.4475                   62.1289                   92.8493                   21.8403                   88.0511                   92.3472                   35.0143                   55.2178                   117.72                    153.701                   127.3892                  23.4307                   114.0395                  89.0225                   21.0238                   76.0263                   57.4282                   24.6982                   43.0465                   101.5135                  69.2315                   121.3796                  94.9368                   150.0833                  125.6742                  54.7083                   98.2344                   80.0062                   77.7946                   91.5478                   80.3057                   36.1248                   103.6002                  39.8246                   100.0                     127.063                   76.6942                   25.5539                   112.5389                  115.9741                  
5                         99999.0                   99999.0                   99999.0                   99999.0                   99999.0                   99999.0                   89.202                    98.1275                   50.0899                   92.6984                   124.5793                  18.0                      63.6396                   95.6922                   75.2861                   49.6488                   71.3863                   26.0768                   58.8303                   52.8867                   60.4401                   68.0294                   19.6469                   66.8506                   93.0484                   121.6717                  99.6393                   58.8982                   85.703                    61.6847                   29.0172                   49.3964                   21.4009                   59.4138                   7.2801                    76.0592                   50.3289                   85.6329                   67.4759                   114.2147                  96.3016                   34.5398                   65.192                    54.231                    43.2666                   73.7631                   56.8243                   69.8928                   67.624                    75.8024                   66.4831                   94.3663                   43.382                    52.469                    85.0                      80.8084                   
6                         99999.0                   99999.0                   99999.0                   99999.0                   99999.0                   99999.0                   28.8444                   106.5082                  110.6526                  83.7735                   84.1724                   48.0521                   129.4025                  69.8713                   50.9215                   31.6228                   137.1167                  43.1856                   52.4976                   118.4567                  27.8927                   88.6172                   66.6408                   127.8828                  103.6002                  100.8415                  99.7647                   120.0167                  33.0151                   28.6356                   94.4299                   33.8378                   48.0937                   119.4362                  58.5491                   90.5539                   50.774                    48.0416                   80.6102                   67.6757                   92.1358                   81.0432                   5.0                       34.4384                   48.5489                   104.6231                  39.9249                   135.0926                  34.176                    138.928                   2.2361                    77.201                    54.3783                   118.2286                  90.4434                   52.3927                   
7                         150.0833                  92.3147                   72.0902                   119.8207                  89.202                    28.8444                   99999.0                   133.6862                  136.8941                  109.078                   98.1275                   71.2531                   152.0296                  91.9239                   76.0066                   43.1741                   159.2011                  69.9214                   80.6226                   140.2284                  32.8938                   117.2902                  85.0                      154.1493                  131.1373                  121.758                   125.9246                  137.7679                  12.083                    32.311                    118.2074                  44.643                    74.4648                   136.5613                  82.3893                   118.8276                  57.7062                   69.0797                   109.0413                  80.025                    117.8855                  108.8485                  26.4008                   41.7852                   77.3886                   133.4541                  44.2945                   155.9295                  60.0                      157.496                   26.9258                   101.0742                  83.2166                   141.0035                  117.7964                  76.0592                   
8                         42.9535                   41.4005                   66.8506                   123.0813                  98.1275                   106.5082                  133.6862                  99999.0                   90.9725                   29.1548                   79.2275                   98.8585                   126.7793                  52.5547                   58.7282                   121.4907                  134.7924                  85.703                    54.5894                   125.2198                  126.6254                  30.8058                   117.0                     99.0858                   5.3852                    48.5077                   13.0                      144.9                     139.5206                  127.9531                  102.7862                  123.0325                  85.8429                   147.0544                  96.0208                   22.0907                   135.0926                  70.4557                   31.1448                   85.44                     20.6155                   68.4105                   110.6752                  127.2242                  64.846                    36.7967                   132.8533                  140.2926                  73.7564                   153.8473                  108.7244                  40.4969                   60.6383                   119.4738                  16.1245                   60.6053                   
9                         59.0339                   86.4523                   111.6647                  44.5982                   50.0899                   110.6526                  136.8941                  90.9725                   99999.0                   100.7671                  146.7685                  66.7308                   35.8469                   114.2366                  99.7246                   99.5389                   43.8292                   67.4759                   80.9938                   36.4966                   110.1363                  62.9682                   64.6607                   17.2627                   85.703                    130.9695                  98.7168                   60.0                      134.7665                  111.4271                  26.4008                   99.4032                   62.6498                   63.0317                   55.7136                   72.2496                   99.5691                   113.842                   69.527                    141.8732                  99.7046                   33.5261                   111.3059                  104.2785                  70.406                    55.0091                   106.8925                  49.6588                   100.02                    64.195                    111.8794                  107.6476                  66.2193                   29.8329                   84.8999                   105.4751                  
10                        66.3702                   22.0907                   38.8973                   123.6649                  92.6984                   83.7735                   109.078                   29.1548                   100.7671                  99999.0                   52.2398                   88.1192                   135.0592                  23.4094                   33.121                    104.0865                  143.5444                  73.6817                   37.0135                   130.7287                  107.2007                  38.9487                   109.3846                  112.6055                  29.6142                   30.4795                   17.8045                   146.8128                  116.2755                  108.4159                  105.4372                  105.9292                  75.505                    148.3543                  88.6002                   31.0161                   120.1499                  42.45                     31.241                    56.5155                   9.2195                    71.0634                   88.3912                   109.4897                  51.6236                   54.4059                   115.4123                  147.3228                  49.6588                   159.0126                  86.0058                   11.4018                   49.7293                   126.0635                  19.2354                   33.4215                   
11                        118.6086                  60.3738                   40.0                      159.8124                  124.5793                  84.1724                   98.1275                   79.2275                   146.7685                  52.2398                   99999.0                   113.2254                  178.3536                  32.6956                   49.5177                   114.1622                  186.9545                  99.6393                   67.624                    171.6421                  112.058                   89.2861                   136.2424                  160.6393                  81.0062                   36.7151                   66.2722                   183.142                   109.0                     112.8051                  145.0862                  116.3787                  103.5857                  183.8967                  118.4441                  82.5651                   133.1953                  39.9625                   80.0062                   18.2483                   59.0085                   114.057                   89.0505                   118.0042                  82.0731                   106.099                   123.7619                  189.0106                  58.8303                   198.3986                  85.9069                   41.7732                   83.8689                   168.2171                  71.4493                   43.8406                   
12                        95.4149                   66.0984                   73.2393                   52.0                      18.0                      48.0521                   71.2531                   98.8585                   66.7308                   88.1192                   113.2254                  99999.0                   81.4985                   86.8159                   65.2993                   33.121                    89.1067                   14.5602                   51.6624                   70.406                    43.4626                   70.8802                   23.0217                   83.8153                   94.2019                   115.1347                  98.0                      73.5731                   68.1542                   44.7772                   47.0106                   33.2866                   13.0384                   73.4983                   11.1803                   77.4661                   38.5876                   73.4098                   67.7422                   101.1781                  93.2631                   44.5533                   47.2652                   38.2753                   36.4966                   80.5295                   41.8688                   87.0919                   54.6717                   91.7061                   48.6621                   87.6413                   39.0128                   70.3491                   84.1487                   70.3278                   
