SET
I  first /1*66/
K(I)  depot1 /1*6/
O(I)  node1 /7*66/
alias(I,J);
alias(K,L);
alias(O,P);
TABLE C(I,J)  node to node
                          1                         2                         3                         4                         5                         6                         7                         8                         9                         10                        11                        12                        13                        14                        15                        16                        17                        18                        19                        20                        21                        22                        23                        24                        25                        26                        27                        28                        29                        30                        31                        32                        33                        34                        35                        36                        37                        38                        39                        40                        41                        42                        43                        44                        45                        46                        47                        48                        49                        50                        51                        52                        53                        54                        55                        56                        57                        58                        59                        60                        61                        62                        63                        64                        65                        66                        
1                         99999.0                   99999.0                   99999.0                   99999.0                   99999.0                   99999.0                   103.407                   79.8311                   113.0708                  68.9493                   157.6135                  142.3938                  125.6344                  27.4591                   124.3262                  149.683                   52.2015                   141.2409                  71.1969                   71.0211                   56.9386                   66.7608                   151.9803                  159.4553                  115.434                   140.1856                  100.3195                  100.4988                  169.9176                  38.0789                   87.4757                   140.2462                  37.6431                   34.4384                   150.7481                  117.72                    60.2993                   5.0                       120.3536                  80.2309                   42.9418                   144.6928                  59.0339                   132.0038                  122.8088                  117.3925                  21.8403                   85.703                    36.8782                   62.1691                   37.8021                   80.4114                   127.236                   46.4866                   47.2017                   103.0437                  80.2247                   99.8248                   121.2642                  69.8928                   81.8413                   129.6919                  152.8987                  100.3195                  88.8369                   49.5177                   
2                         99999.0                   99999.0                   99999.0                   99999.0                   99999.0                   99999.0                   98.8838                   78.6003                   73.3348                   64.6607                   103.1746                  81.3941                   73.4098                   42.0595                   144.2775                  96.0417                   57.2014                   101.6071                  94.6256                   6.7082                    99.0202                   96.3846                   107.2054                  115.434                   99.3277                   93.9202                   111.3957                  72.0069                   121.7415                  81.4923                   22.0227                   97.7446                   77.8845                   99.6243                   103.2473                  59.9416                   21.3776                   67.0522                   55.0818                   67.6018                   26.4764                   91.4166                   68.2495                   119.5492                  114.3897                  52.8394                   85.4751                   20.0998                   75.0                      42.7551                   60.8769                   15.0                      102.9563                  36.0555                   42.72                     40.8044                   26.4008                   48.0833                   119.8833                  100.8464                  23.7697                   108.8531                  100.7224                  111.3957                  63.6003                   100.2247                  
3                         99999.0                   99999.0                   99999.0                   99999.0                   99999.0                   99999.0                   112.4856                  96.4002                   71.7844                   84.0595                   85.3815                   58.3095                   57.3062                   71.5122                   163.4044                  79.555                    81.3449                   95.7549                   118.1059                  25.2982                   126.3725                  121.2642                  97.0464                   105.119                   107.6151                  84.0                      129.6302                  78.2304                   107.8703                  110.0273                  8.9443                    90.2718                   106.2121                  129.8075                  91.351                    40.2244                   42.8019                   97.2677                   25.0799                   82.9759                   56.0                      75.71                     91.2853                   127.4245                  124.6194                  26.4008                   115.849                   10.4403                   103.2473                  60.4401                   86.8389                   15.8114                   106.5129                  61.0328                   68.4105                   19.2354                   29.5296                   39.2046                   132.6537                  125.7179                  27.0185                   113.5958                  85.1469                   129.6302                  73.7564                   128.9961                  
4                         99999.0                   99999.0                   99999.0                   99999.0                   99999.0                   99999.0                   13.1529                   25.5539                   68.0661                   39.8246                   117.0043                  123.6932                  175.5677                  107.4895                  44.2832                   110.0409                  52.8867                   79.4292                   34.4819                   110.0                     60.7454                   42.72                     94.541                    98.2344                   32.573                    90.0888                   12.0                      50.0                      113.031                   67.72                     117.3882                  83.6002                   65.7343                   120.2082                  98.6154                   159.8061                  119.8833                  105.0762                  141.2409                  37.4833                   86.9253                   106.1697                  42.5793                   37.6431                   27.0185                   121.3136                  97.2677                   115.2779                  65.1153                   137.2334                  131.3811                  113.3578                  49.0408                   121.758                   66.4831                   138.6001                  130.4301                  151.6476                  21.3776                   43.4166                   93.4345                   45.6508                   109.0413                  12.0                      48.3735                   74.4312                   
5                         99999.0                   99999.0                   99999.0                   99999.0                   99999.0                   99999.0                   27.8029                   17.1172                   37.855                    18.6011                   89.4986                   90.5539                   140.8687                  85.2877                   80.1311                   81.7863                   34.8855                   59.4054                   48.0521                   76.9415                   70.214                    55.3624                   73.0616                   79.0569                   30.0167                   64.622                    46.5188                   18.9737                   92.2822                   66.5282                   82.4621                   60.9016                   62.9365                   115.1086                  74.7329                   124.6515                  89.8443                   91.5478                   105.2093                  6.7082                    60.1332                   77.2787                   31.8277                   49.366                    43.0116                   85.4225                   92.2009                   80.4301                   60.8276                   109.2383                  110.5486                  79.0569                   40.3113                   95.5249                   42.4264                   103.3925                  97.5295                   117.8855                  48.5489                   58.6941                   58.0517                   43.1741                   82.28                     46.5188                   12.6491                   80.9938                   
6                         99999.0                   99999.0                   99999.0                   99999.0                   99999.0                   99999.0                   88.0227                   82.3893                   33.2866                   76.1643                   38.0132                   25.0                      102.6109                  103.9663                  143.6175                  30.8869                   83.678                    48.1041                   112.0                     64.846                    129.7112                  118.1524                  47.0425                   55.0                      75.4718                   34.3657                   111.1261                  49.6488                   57.9741                   119.2518                  55.5428                   41.7612                   115.1347                  155.3222                  41.1096                   84.9294                   85.4225                   124.2014                  55.7136                   68.1175                   78.8733                   26.4008                   88.8144                   92.3147                   93.1933                   31.0161                   136.0                     55.0818                   112.272                   106.1037                  125.6025                  58.5235                   67.897                    101.2423                  77.8781                   67.1193                   78.339                    89.0056                   104.3168                  122.0656                  42.0119                   75.6902                   35.8469                   111.1261                  53.3385                   137.2771                  
7                         103.407                   98.8838                   112.4856                  13.1529                   27.8029                   88.0227                   99999.0                   24.0                      55.7853                   37.4833                   104.0048                  111.6826                  168.6683                  107.4663                  55.6597                   97.1288                   53.0094                   66.2873                   43.8634                   104.4462                  70.1783                   52.345                    81.3941                   85.1645                   19.6977                   77.026                    25.0799                   38.4838                   99.925                    74.2496                   110.2588                  70.4557                   71.6938                   126.4634                  85.4751                   152.3975                  116.2454                  108.3421                  132.1363                  31.305                    84.6463                   93.3435                   44.4072                   29.1548                   19.4165                   111.2205                  103.2473                  108.2312                  70.5762                   134.7665                  132.1363                  106.8316                  36.2491                   120.075                   64.9384                   131.1373                  125.032                   145.6091                  21.0238                   53.8145                   85.7963                   33.6006                   96.0052                   25.0799                   38.9487                   83.4086                   
8                         79.8311                   78.6003                   96.4002                   25.5539                   17.1172                   82.3893                   24.0                      99999.0                   54.9181                   14.3178                   106.5129                  107.2986                  150.6287                  83.6002                   67.0075                   98.8433                   29.0172                   74.793                    31.0483                   84.6463                   54.3783                   38.6264                   89.0                      94.5145                   36.7151                   81.2712                   33.3017                   35.9026                   108.2266                  53.6004                   92.7631                   76.9675                   50.4777                   104.6566                  91.1811                   135.2072                  94.3663                   84.7231                   118.3385                  14.5602                   61.6847                   94.3663                   20.8806                   52.1728                   43.1856                   100.09                    81.4125                   90.6091                   48.8774                   112.0089                  108.1665                  88.3912                   51.0882                   96.8401                   41.4849                   114.1096                  105.0                     126.3725                  43.9318                   41.7612                   69.4046                   51.6236                   99.2018                   33.3017                   29.0689                   66.0681                   
9                         113.0708                  73.3348                   71.7844                   68.0661                   37.855                    33.2866                   55.7853                   54.9181                   99999.0                   53.2259                   51.6624                   55.9732                   128.5496                  102.8834                  111.4002                  43.9318                   65.8027                   29.1548                   85.9069                   76.0066                   107.3359                  93.145                    38.9487                   46.4004                   42.19                     28.0179                   79.9062                   19.105                    57.3847                   101.0198                  73.5459                   27.2029                   97.0979                   144.9586                  38.6005                   110.982                   94.6414                   117.0043                  84.8764                   42.3792                   75.5844                   39.4588                   67.082                    59.4138                   59.9083                   61.0737                   123.2396                  72.1803                   94.578                    115.9741                  127.3892                  73.437                    35.805                    106.48                    65.9469                   90.824                    94.4299                   110.354                   71.1196                   96.5401                   51.0392                   43.4166                   44.5982                   79.9062                   27.7308                   117.1708                  
10                        68.9493                   64.6607                   84.0595                   39.8246                   18.6011                   76.1643                   37.4833                   14.3178                   53.2259                   99999.0                   104.4031                  101.1237                  137.2079                  70.1142                   79.9812                   96.4624                   16.7631                   77.3369                   36.3456                   70.8378                   54.4059                   42.0119                   90.4434                   96.8297                   46.5725                   81.0062                   46.7547                   35.805                    109.5536                  48.4149                   79.8123                   78.2368                   44.6878                   96.5194                   91.4166                   122.1475                  80.0625                   73.6817                   106.8878                  12.0416                   47.4342                   91.7061                   13.8924                   64.195                    56.0357                   90.2497                   73.6003                   77.6209                   42.45                     97.7394                   95.0                      75.0733                   58.5918                   82.7103                   27.4591                   101.2126                  91.0494                   112.6099                  57.9741                   46.0109                   57.3062                   60.7454                   97.6934                   46.7547                   25.4951                   63.9531                   
