SET
I  first /1*54/
K(I)  depot1 /1*4/
O(I)  node1 /5*54/
alias(I,J);
alias(K,L);
alias(O,P);
TABLE C(I,J)  node to node
                          1                         2                         3                         4                         5                         6                         7                         8                         9                         10                        11                        12                        13                        14                        15                        16                        17                        18                        19                        20                        21                        22                        23                        24                        25                        26                        27                        28                        29                        30                        31                        32                        33                        34                        35                        36                        37                        38                        39                        40                        41                        42                        43                        44                        45                        46                        47                        48                        49                        50                        51                        52                        53                        54                        
1                         99999.0                   99999.0                   99999.0                   99999.0                   39.8246                   22.6274                   18.6815                   22.2036                   28.4605                   18.6815                   14.5602                   17.8045                   22.8035                   21.0238                   36.0555                   59.9416                   57.3149                   50.1597                   43.4626                   44.8219                   50.4777                   50.9608                   48.3735                   48.1041                   45.607                    37.4433                   32.2025                   26.0                      31.0644                   36.7967                   38.5876                   38.6005                   40.05                     40.05                     43.9318                   49.0408                   64.1405                   55.2178                   41.5933                   49.6488                   12.0                      32.0156                   56.7186                   68.3081                   67.5426                   61.0328                   65.4905                   77.4145                   73.6003                   65.1153                   56.6392                   38.4187                   17.088                    10.4403                   
2                         99999.0                   99999.0                   99999.0                   99999.0                   70.1783                   53.1507                   47.0106                   38.6005                   28.1603                   15.2315                   20.6155                   35.3553                   47.8017                   51.3128                   65.8559                   88.8144                   81.7068                   71.8401                   59.4138                   54.1479                   50.3289                   41.4005                   27.2947                   21.095                    15.0                      12.3693                   14.1421                   25.0                      41.5933                   51.3517                   57.0088                   61.5224                   66.2193                   66.2193                   72.6154                   79.6492                   93.4077                   85.8021                   70.0071                   71.0634                   25.0                      19.6977                   33.5261                   41.0488                   38.3275                   34.0                      49.0918                   71.218                    72.0694                   67.4166                   59.7746                   43.4166                   39.3573                   39.6232                   
3                         99999.0                   99999.0                   99999.0                   99999.0                   67.4166                   51.6236                   41.4005                   29.1548                   34.0147                   49.0306                   61.8466                   69.0652                   70.0071                   58.0086                   49.7293                   56.8859                   36.7696                   25.0                      11.4018                   8.0                       20.5183                   35.805                    52.9245                   62.3618                   71.4493                   74.3303                   73.3485                   74.4648                   82.3772                   87.4586                   87.6926                   84.5044                   81.5414                   81.5414                   78.721                    67.082                    62.1691                   73.8241                   77.8267                   95.4254                   61.7171                   44.1814                   59.0593                   73.9256                   79.2023                   68.8767                   50.9313                   40.4475                   31.0161                   20.025                    14.8661                   19.105                    34.8281                   45.2769                   
4                         99999.0                   99999.0                   99999.0                   99999.0                   26.2488                   20.025                    20.5913                   33.2866                   49.93                     52.6308                   53.4883                   50.1597                   42.5793                   27.2947                   7.8102                    21.4009                   22.8473                   23.6008                   32.249                    43.0116                   57.5587                   67.6757                   75.7166                   80.0562                   81.8352                   76.0592                   71.1758                   63.7887                   62.0322                   62.1691                   58.8218                   51.8941                   45.4863                   45.4863                   38.8973                   23.5372                   26.1725                   30.2655                   38.9487                   61.0574                   50.2892                   59.8164                   84.0595                   98.2293                   100.005                   91.4002                   84.7585                   83.006                    74.4312                   63.5059                   57.0351                   46.5725                   29.0                      28.6356                   
5                         39.8246                   70.1783                   67.4166                   26.2488                   99999.0                   19.2354                   30.0167                   48.0104                   62.8013                   58.1808                   51.0882                   40.8044                   28.178                    18.868                    18.6011                   34.7131                   47.8017                   49.8197                   56.0803                   65.0                      77.5242                   84.1487                   86.6833                   87.7268                   85.1469                   75.0733                   68.593                    57.0088                   48.4665                   44.7214                   39.0512                   30.0666                   21.587                    21.587                    12.8062                   12.3693                   36.0555                   16.4012                   13.4164                   37.0                      46.7547                   69.9214                   95.2103                   107.7033                  107.3313                  100.4639                  100.6032                  104.561                   97.2677                   86.6833                   79.3095                   65.192                    41.1096                   33.2415                   
6                         22.6274                   53.1507                   51.6236                   20.025                    19.2354                   99999.0                   11.1803                   29.0689                   43.566                    39.9625                   36.0555                   30.4138                   22.8035                   7.6158                    14.5602                   38.8973                   42.2019                   39.4462                   40.8044                   47.927                    59.2284                   65.0308                   67.6757                   69.3542                   68.1175                   59.8164                   54.0833                   44.9444                   42.0119                   42.45                     39.8121                   34.2053                   30.0                      30.0                      27.8927                   26.6271                   42.5441                   33.121                    26.5707                   44.5533                   32.249                    50.9215                   76.2168                   89.0505                   89.1852                   81.8596                   81.3941                   86.5852                   80.0562                   69.857                    62.0322                   46.6905                   22.0                      14.3178                   
7                         18.6815                   47.0106                   41.4005                   20.5913                   30.0167                   11.1803                   99999.0                   18.0                      33.2415                   32.5269                   33.2415                   32.5576                   29.4109                   16.6433                   19.2094                   41.8808                   39.0128                   33.2415                   31.1127                   37.1214                   48.0521                   54.1479                   58.1808                   61.0328                   61.6198                   55.4707                   50.6952                   44.2832                   45.607                    48.3011                   47.2017                   43.1856                   40.3113                   40.3113                   39.0512                   35.4683                   46.4004                   42.3792                   37.6431                   54.037                    30.4138                   41.5933                   66.7083                   80.1311                   81.0247                   73.0616                   70.7107                   75.4321                   69.0797                   59.0339                   51.0784                   35.5106                   11.1803                   8.2462                    
8                         22.2036                   38.6005                   29.1548                   33.2866                   48.0104                   29.0689                   18.0                      99999.0                   16.6433                   23.5372                   33.2415                   40.0                      42.4382                   33.2415                   35.1141                   53.9073                   43.382                    33.2415                   22.3607                   22.6716                   30.6757                   36.2215                   42.4382                   47.4236                   51.4296                   49.6488                   47.0106                   45.8803                   53.2541                   58.7282                   59.6657                   57.8014                   56.648                    56.648                    56.7186                   52.6308                   59.0339                   59.6657                   55.109                    68.9638                   32.6956                   26.8701                   50.774                    65.0                      67.1789                   58.258                    52.9528                   58.1893                   52.8394                   43.6005                   35.2278                   18.0278                   7.2801                    17.8885                   
9                         28.4605                   28.1603                   34.0147                   49.93                     62.8013                   43.566                    33.2415                   16.6433                   99999.0                   16.6433                   32.5269                   44.4185                   51.2445                   46.0                      51.4782                   70.4344                   58.2495                   47.0106                   32.573                    26.0192                   24.2074                   22.561                    25.807                    31.6228                   38.0789                   40.4475                   40.1622                   44.2041                   56.2228                   63.8122                   66.6408                   67.0522                   67.897                    67.897                    70.0                      68.6222                   75.6042                   75.5844                   68.0294                   78.1089                   34.2053                   11.1803                   34.1321                   48.4149                   50.9902                   41.7732                   38.0132                   49.6488                   47.4236                   40.8167                   32.6497                   15.2971                   22.1359                   30.0167                   
10                        18.6815                   15.2315                   49.0306                   52.6308                   58.1808                   39.9625                   32.5269                   23.5372                   16.6433                   99999.0                   16.6433                   30.3645                   40.0125                   39.5601                   51.6624                   74.027                    66.4831                   56.7539                   45.0111                   41.2311                   40.8044                   36.3593                   30.0167                   29.5466                   29.2062                   26.1725                   24.3311                   27.6586                   40.8167                   49.2443                   53.1601                   55.3263                   58.0775                   58.0775                   62.5859                   66.5733                   78.7464                   73.0616                   60.208                    65.9242                   19.3132                   14.5602                   38.2099                   49.6488                   49.2443                   42.3792                   48.7647                   65.2993                   63.8905                   57.4543                   49.2443                   31.3847                   24.1868                   25.807                    
11                        14.5602                   20.6155                   61.8466                   53.4883                   51.0882                   36.0555                   33.2415                   33.2415                   32.5269                   16.6433                   99999.0                   15.0                      27.2029                   32.5269                   50.1199                   74.2496                   71.7008                   64.0                      55.5428                   54.5619                   56.6392                   53.0                      44.7214                   41.1096                   34.9285                   24.0416                   18.0278                   12.6491                   24.1868                   32.8938                   37.4833                   41.1096                   45.607                    45.607                    52.3259                   61.5549                   78.2943                   67.2086                   49.6588                   51.0392                   4.4721                    30.8707                   52.2398                   61.4003                   58.9406                   54.231                    64.846                    81.8352                   79.9312                   72.8011                   64.405                    46.0435                   30.0666                   25.0                      
12                        17.8045                   35.3553                   69.0652                   50.1597                   40.8044                   30.4138                   32.5576                   40.0                      44.4185                   30.3645                   15.0                      99999.0                   13.6015                   24.3516                   44.911                    69.1231                   71.1758                   65.7343                   60.8276                   62.6259                   67.624                    66.2118                   59.5399                   56.0803                   49.0408                   36.2353                   29.1548                   16.2788                   13.4164                   19.4165                   22.8035                   26.1725                   31.3847                   31.3847                   39.4081                   52.4786                   72.4224                   57.2014                   36.6197                   36.0555                   11.1803                   44.9222                   67.1863                   76.3217                   73.5459                   69.1809                   79.1202                   94.0319                   90.9065                   82.7345                   74.2496                   55.9017                   34.4819                   25.2982                   
